# 2Theta,Counts
  36.33024,  48.03161
  36.35026,  45.29916
  36.37027,  47.53574
  36.39029,  51.35227
  36.41031,  50.74251
  36.43033,  45.19811
  36.45034,  48.93760
  36.47036,  50.74859
  36.49038,  48.43770
  36.51040,  48.77363
  36.53042,  46.62277
  36.55043,  47.03914
  36.57045,  44.23959
  36.59047,  47.65355
  36.61049,  49.10269
  36.63050,  51.53692
  36.65052,  51.04635
  36.67054,  56.09505
  36.69056,  53.75519
  36.71058,  49.21078
  36.73059,  49.38336
  36.75061,  49.05006
  36.77063,  45.89305
  36.79065,  49.43335
  36.81067,  44.77598
  36.83068,  44.48128
  36.85070,  48.00170
  36.87072,  48.73986
  36.89074,  48.60682
  36.91076,  48.61173
  36.93077,  52.55859
  36.95079,  47.57302
  36.97081,  50.38387
  36.99083,  51.75690
  37.01084,  46.92913
  37.03086,  55.68263
  37.05088,  49.82440
  37.07090,  47.25504
  37.09092,  47.31138
  37.11093,  48.52482
  37.13095,  45.89532
  37.15097,  47.86379
  37.17099,  48.45541
  37.19101,  52.92503
  37.21102,  48.93073
  37.23104,  47.47664
  37.25106,  43.46198
  37.27108,  50.93279
  37.29110,  49.88833
  37.31111,  49.62182
  37.33113,  48.19181
  37.35115,  47.22842
  37.37117,  44.30264
  37.39118,  42.06426
  37.41120,  52.47731
  37.43122,  44.44304
  37.45124,  42.07889
  37.47126,  44.42688
  37.49127,  48.85904
  37.51129,  47.89002
  37.53131,  44.21447
  37.55133,  48.79757
  37.57135,  45.24484
  37.59136,  44.18331
  37.61138,  40.61934
  37.63140,  45.99338
  37.65142,  47.19159
  37.67144,  51.31658
  37.69145,  49.34489
  37.71147,  47.73041
  37.73149,  45.88675
  37.75151,  44.31549
  37.77153,  48.52816
  37.79154,  53.09309
  37.81156,  49.72375
  37.83158,  49.75035
  37.85160,  46.93596
  37.87162,  49.19264
  37.89163,  45.92712
  37.91165,  50.05537
  37.93167,  46.37221
  37.95169,  47.21942
  37.97171,  48.38594
  37.99172,  48.42965
  38.01174,  45.65596
  38.03176,  52.68759
  38.05178,  47.13766
  38.07180,  45.69974
  38.09181,  40.52411
  38.11183,  46.94988
  38.13185,  41.95980
  38.15187,  43.36703
  38.17189,  45.28639
  38.19190,  46.62588
  38.21192,  47.22535
  38.23194,  49.20253
  38.25196,  48.77856
  38.27198,  45.65138
  38.29200,  52.24221
  38.31201,  46.82677
  38.33203,  45.35450
  38.35205,  44.34610
  38.37207,  45.39880
  38.39208,  45.77544
  38.41210,  41.62751
  38.43212,  43.73247
  38.45214,  44.12823
  38.47216,  47.65243
  38.49217,  46.98001
  38.51219,  44.63072
  38.53221,  43.05783
  38.55223,  43.97321
  38.57225,  45.97306
  38.59227,  44.69941
  38.61228,  48.00163
  38.63230,  50.59477
  38.65232,  46.19337
  38.67234,  44.19473
  38.69236,  45.17960
  38.71237,  47.50914
  38.73239,  52.53185
  38.75241,  50.57154
  38.77243,  41.78755
  38.79245,  44.72857
  38.81246,  46.99681
  38.83248,  43.31156
  38.85250,  43.24116
  38.87252,  47.08637
  38.89254,  49.14531
  38.91256,  37.37219
  38.93257,  46.82708
  38.95259,  42.81442
  38.97261,  46.85805
  38.99263,  51.41466
  39.01265,  46.95937
  39.03266,  44.10443
  39.05268,  43.61693
  39.07270,  41.70034
  39.09272,  44.21230
  39.11274,  46.90108
  39.13275,  45.32554
  39.15277,  44.58559
  39.17279,  45.37900
  39.19281,  41.74377
  39.21283,  43.58718
  39.23284,  50.62327
  39.25286,  43.68961
  39.27288,  41.61448
  39.29290,  46.43707
  39.31292,  40.27550
  39.33294,  48.39765
  39.35295,  48.20424
  39.37297,  43.23196
  39.39299,  43.34617
  39.41301,  43.83590
  39.43303,  44.36455
  39.45304,  45.71314
  39.47306,  43.63579
  39.49308,  41.13639
  39.51310,  48.39274
  39.53312,  43.47898
  39.55314,  43.82095
  39.57315,  46.74808
  39.59317,  49.36396
  39.61319,  41.11545
  39.63321,  46.35023
  39.65323,  45.56210
  39.67324,  37.52510
  39.69326,  43.41673
  39.71328,  43.07041
  39.73330,  42.93760
  39.75332,  45.54019
  39.77334,  49.43864
  39.79335,  44.36625
  39.81337,  42.98045
  39.83339,  47.82577
  39.85341,  44.07943
  39.87343,  43.92047
  39.89345,  40.30539
  39.91346,  45.11481
  39.93348,  44.00798
  39.95350,  42.36628
  39.97352,  47.49985
  39.99354,  44.41709
  40.01355,  44.17670
  40.03357,  41.78036
  40.05359,  39.97230
  40.07361,  44.73441
  40.09363,  38.06446
  40.11365,  41.18889
  40.13366,  42.01969
  40.15368,  43.78115
  40.17370,  44.07279
  40.19372,  44.13677
  40.21374,  43.10968
  40.23376,  47.27525
  40.25377,  44.78875
  40.27379,  42.40459
  40.29381,  47.02401
  40.31383,  43.92276
  40.33385,  45.28092
  40.35387,  44.81226
  40.37388,  46.18008
  40.39390,  49.20863
  40.41392,  43.01013
  40.43394,  38.98947
  40.45396,  43.16023
  40.47397,  43.50435
  40.49399,  45.77522
  40.51401,  43.33892
  40.53403,  45.90480
  40.55405,  42.30929
  40.57407,  48.25674
  40.59408,  47.69864
  40.61410,  44.12868
  40.63412,  43.83120
  40.65414,  40.93850
  40.67416,  45.13186
  40.69418,  47.65503
  40.71419,  44.51921
  40.73421,  37.95281
  40.75423,  40.53613
  40.77425,  40.82941
  40.79427,  47.12995
  40.81429,  44.67272
  40.83430,  40.67079
  40.85432,  40.64435
  40.87434,  44.18981
  40.89436,  40.96513
  40.91438,  46.84532
  40.93440,  41.88895
  40.95441,  47.12834
  40.97443,  44.26376
  40.99445,  37.62416
  41.01447,  40.37835
  41.03449,  41.97348
  41.05451,  42.93440
  41.07452,  47.17202
  41.09454,  44.76984
  41.11456,  46.11843
  41.13458,  45.95524
  41.15460,  41.25554
  41.17461,  41.25260
  41.19463,  45.01226
  41.21465,  41.57974
  41.23467,  44.04526
  41.25469,  47.35644
  41.27471,  41.60780
  41.29473,  39.42639
  41.31474,  40.75654
  41.33476,  40.00427
  41.35478,  40.31164
  41.37480,  41.39280
  41.39482,  47.31872
  41.41484,  46.25628
  41.43485,  48.06339
  41.45487,  41.08171
  41.47489,  41.04401
  41.49491,  46.59531
  41.51493,  41.20240
  41.53495,  43.02982
  41.55497,  42.40295
  41.57498,  44.69254
  41.59500,  39.11772
  41.61502,  42.06434
  41.63504,  44.48806
  41.65506,  40.05284
  41.67508,  48.48071
  41.69509,  46.29098
  41.71511,  39.04320
  41.73513,  42.17786
  41.75515,  42.73958
  41.77517,  41.78381
  41.79519,  46.84484
  41.81520,  37.37430
  41.83522,  44.90722
  41.85524,  39.40894
  41.87526,  46.45042
  41.89528,  44.20958
  41.91530,  40.33970
  41.93532,  42.06616
  41.95533,  46.11176
  41.97535,  41.80376
  41.99537,  38.98976
  42.01539,  40.66689
  42.03541,  47.71441
  42.05543,  42.46218
  42.07545,  39.37416
  42.09546,  41.37720
  42.11548,  46.20308
  42.13550,  44.79255
  42.15552,  41.56210
  42.17554,  41.75711
  42.19556,  41.41530
  42.21557,  47.13033
  42.23559,  40.30274
  42.25561,  40.32203
  42.27563,  45.61382
  42.29565,  41.53115
  42.31567,  41.42696
  42.33569,  43.68176
  42.35570,  40.67859
  42.37572,  45.23132
  42.39574,  43.12539
  42.41576,  46.69913
  42.43578,  44.55973
  42.45580,  42.69289
  42.47581,  44.83971
  42.49583,  44.12308
  42.51585,  40.27211
  42.53587,  44.53703
  42.55589,  43.72153
  42.57591,  41.41903
  42.59593,  39.94848
  42.61594,  41.30079
  42.63596,  45.04173
  42.65598,  42.64361
  42.67600,  39.58951
  42.69602,  43.44956
  42.71604,  43.63213
  42.73605,  43.70173
  42.75607,  40.79885
  42.77609,  44.51450
  42.79611,  45.94426
  42.81613,  41.89184
  42.83615,  41.98042
  42.85617,  42.33693
  42.87619,  39.77970
  42.89620,  40.03577
  42.91622,  38.57934
  42.93624,  41.87022
  42.95626,  45.48684
  42.97628,  45.50136
  42.99630,  47.01606
  43.01632,  41.14909
  43.03633,  46.07011
  43.05635,  45.47084
  43.07637,  46.00504
  43.09639,  45.49727
  43.11641,  46.28217
  43.13643,  40.18648
  43.15645,  47.18031
  43.17646,  47.06676
  43.19648,  45.70404
  43.21650,  46.83596
  43.23652,  41.97113
  43.25654,  44.27771
  43.27656,  49.76262
  43.29658,  53.50649
  43.31660,  52.94741
  43.33661,  49.87966
  43.35663,  52.99580
  43.37665,  56.79535
  43.39667,  53.69531
  43.41669,  62.28392
  43.43671,  70.53968
  43.45673,  64.93241
  43.47674,  74.72402
  43.49676,  96.96118
  43.51678, 106.24278
  43.53680, 140.29936
  43.55682, 185.47983
  43.57684, 212.62159
  43.59686, 237.60604
  43.61687, 292.30280
  43.63689, 329.83179
  43.65691, 350.76168
  43.67693, 354.63454
  43.69695, 378.78416
  43.71697, 398.72233
  43.73699, 398.64598
  43.75701, 373.51589
  43.77702, 383.33253
  43.79704, 369.50788
  43.81706, 325.86944
  43.83708, 304.58254
  43.85710, 287.07142
  43.87712, 251.58545
  43.89714, 236.37116
  43.91715, 192.47032
  43.93717, 176.07931
  43.95719, 144.42108
  43.97721, 121.96968
  43.99723, 117.70462
  44.01725,  95.68969
  44.03727,  82.23204
  44.05729,  75.54637
  44.07731,  67.54540
  44.09732,  68.14180
  44.11734,  63.36747
  44.13736,  64.82435
  44.15738,  54.96052
  44.17740,  57.33381
  44.19742,  53.06909
  44.21744,  55.35617
  44.23745,  52.42518
  44.25747,  51.24108
  44.27749,  48.34105
  44.29751,  50.47780
  44.31753,  55.07788
  44.33755,  50.55221
  44.35757,  46.24403
  44.37759,  46.29904
  44.39761,  55.51125
  44.41762,  56.56819
  44.43764,  58.37532
  44.45766,  59.01490
  44.47768,  66.06221
  44.49770,  65.88362
  44.51772,  75.56750
  44.53774,  82.56917
  44.55776,  95.58019
  44.57777, 113.18396
  44.59779, 141.23102
  44.61781, 167.35558
  44.63783, 203.16177
  44.65785, 235.06309
  44.67787, 266.57311
  44.69789, 304.09427
  44.71791, 316.69462
  44.73793, 341.38835
  44.75794, 362.62000
  44.77796, 354.67908
  44.79798, 362.73119
  44.81800, 352.83445
  44.83802, 353.89507
  44.85804, 338.47760
  44.87806, 308.83285
  44.89807, 275.73862
  44.91809, 268.06121
  44.93811, 249.30949
  44.95813, 206.97228
  44.97815, 182.00307
  44.99817, 160.86967
  45.01819, 151.14266
  45.03821, 134.53178
  45.05823, 114.66484
  45.07824,  95.40929
  45.09826,  82.37565
  45.11828,  71.60623
  45.13830,  65.14321
  45.15832,  61.19256
  45.17834,  55.79345
  45.19836,  49.63075
  45.21838,  44.46571
  45.23840,  43.52555
  45.25841,  45.70540
  45.27843,  40.97588
  45.29845,  43.70114
  45.31847,  41.46861
  45.33849,  44.53851
  45.35851,  41.04119
  45.37853,  35.24679
  45.39855,  37.49742
  45.41857,  40.37252
  45.43859,  40.71893
  45.45860,  38.14017
  45.47862,  37.76563
  45.49864,  41.99011
  45.51866,  39.71723
  45.53868,  39.17223
  45.55870,  39.28404
  45.57872,  44.76883
  45.59874,  40.56842
  45.61876,  36.50122
  45.63877,  36.01640
  45.65879,  37.73145
  45.67881,  34.63339
  45.69883,  34.97138
  45.71885,  35.54386
  45.73887,  36.43208
  45.75889,  36.54380
  45.77891,  36.26790
  45.79893,  39.62801
  45.81895,  39.21236
  45.83896,  37.77404
  45.85898,  36.28397
  45.87900,  34.81018
  45.89902,  31.85471
  45.91904,  38.17999
  45.93906,  41.00068
  45.95908,  37.05115
  45.97910,  36.08601
  45.99912,  33.33913
  46.01914,  31.20240
  46.03915,  34.79436
  46.05917,  38.36609
  46.07919,  37.82433
  46.09921,  36.66969
  46.11923,  38.88151
  46.13925,  36.28853
  46.15927,  31.62043
  46.17929,  32.06695
  46.19931,  34.17871
  46.21933,  39.80346
  46.23934,  35.89146
  46.25936,  36.76556
  46.27938,  39.57460
  46.29940,  34.90662
  46.31942,  34.69612
  46.33944,  37.21231
  46.35946,  34.66998
  46.37948,  36.16491
  46.39950,  37.56541
  46.41952,  36.28523
  46.43953,  38.26123
  46.45955,  40.94791
  46.47957,  37.69726
  46.49959,  38.42744
  46.51961,  39.07071
  46.53963,  35.58431
  46.55965,  37.10456
  46.57967,  34.55291
  46.59969,  37.06382
  46.61971,  37.26442
  46.63973,  35.02520
  46.65975,  38.12602
  46.67976,  33.89720
  46.69978,  33.80618
  46.71980,  34.01447
  46.73982,  36.44778
  46.75984,  38.73643
  46.77986,  38.85288
  46.79988,  37.13528
  46.81990,  38.31198
  46.83992,  35.98327
  46.85994,  36.78046
  46.87995,  34.39982
  46.89997,  33.89605
  46.91999,  38.93275
  46.94001,  35.57790
  46.96003,  36.50369
  46.98005,  32.30819
  47.00007,  34.29951
  47.02009,  32.66125
  47.04011,  36.36390
  47.06013,  36.26641
  47.08015,  31.67711
  47.10017,  35.71916
  47.12018,  31.51619
  47.14020,  32.46993
  47.16022,  32.35567
  47.18024,  33.98415
  47.20026,  30.29750
  47.22028,  36.23878
  47.24030,  34.38929
  47.26032,  38.08181
  47.28034,  38.30624
  47.30036,  35.53297
  47.32038,  32.17823
  47.34040,  34.80899
  47.36041,  36.33125
  47.38043,  35.25314
  47.40045,  34.92462
  47.42047,  37.02690
  47.44049,  33.25626
  47.46051,  35.95118
  47.48053,  36.79591
  47.50055,  34.00567
  47.52057,  34.45235
  47.54059,  32.00413
  47.56061,  30.44119
  47.58063,  32.52036
  47.60065,  32.60321
  47.62066,  34.49280
  47.64068,  33.84616
  47.66070,  33.37392
  47.68072,  34.48786
  47.70074,  32.68351
  47.72076,  31.98878
  47.74078,  31.04452
  47.76080,  34.54387
  47.78082,  31.65680
  47.80084,  36.12410
  47.82086,  34.77759
  47.84088,  36.09818
  47.86090,  31.47842
  47.88092,  32.98846
  47.90093,  33.19080
  47.92095,  35.08410
  47.94097,  34.82882
  47.96099,  37.72870
  47.98101,  32.60500
  48.00103,  39.56324
  48.02105,  35.54887
  48.04107,  35.11132
  48.06109,  31.67024
  48.08111,  36.90859
  48.10113,  30.62197
  48.12115,  31.49313
  48.14117,  34.74506
  48.16118,  36.90823
  48.18120,  32.44075
  48.20122,  35.24999
  48.22124,  36.42440
  48.24126,  32.27000
  48.26128,  36.88156
  48.28130,  34.48079
  48.30132,  31.37396
  48.32134,  32.56951
  48.34136,  35.68951
  48.36138,  31.61948
  48.38140,  33.25610
  48.40142,  36.47739
  48.42144,  33.00201
  48.44146,  36.48415
  48.46147,  35.93491
  48.48149,  35.29643
  48.50151,  36.15830
  48.52153,  29.65990
  48.54155,  32.63250
  48.56157,  31.64816
  48.58159,  35.02396
  48.60161,  36.16714
  48.62163,  32.96420
  48.64165,  32.04861
  48.66167,  29.11137
  48.68169,  31.57453
  48.70171,  37.61695
  48.72173,  32.14301
  48.74175,  36.97200
  48.76177,  33.11469
  48.78178,  30.88806
  48.80180,  33.38035
  48.82182,  33.12756
  48.84184,  33.87257
  48.86186,  31.85092
  48.88188,  29.56589
  48.90190,  29.67987
  48.92192,  35.00833
  48.94194,  35.33148
  48.96196,  32.41557
  48.98198,  30.97647
  49.00200,  32.47024
  49.02202,  34.63898
  49.04204,  33.03072
  49.06206,  29.68393
  49.08208,  29.61714
  49.10210,  35.37404
  49.12212,  33.79259
  49.14213,  37.38192
  49.16215,  38.70164
  49.18217,  33.77436
  49.20219,  30.55362
  49.22221,  31.06926
  49.24223,  34.28221
  49.26225,  34.28262
  49.28227,  35.24986
  49.30229,  32.90752
  49.32231,  35.88925
  49.34233,  35.87313
  49.36235,  34.66244
  49.38237,  29.08920
  49.40239,  29.13614
  49.42241,  30.29391
  49.44243,  32.27747
  49.46245,  32.84370
  49.48247,  37.25124
  49.50249,  35.83558
  49.52250,  34.32812
  49.54252,  37.09128
  49.56254,  33.31315
  49.58256,  33.98611
  49.60258,  32.85349
  49.62260,  32.33845
  49.64262,  32.00320
  49.66264,  34.70481
  49.68266,  34.06603
  49.70268,  36.89166
  49.72270,  35.92119
  49.74272,  31.79252
  49.76274,  33.43958
  49.78276,  33.56606
  49.80278,  29.47086
  49.82280,  35.99602
  49.84282,  32.21585
  49.86284,  33.44724
  49.88286,  37.08199
  49.90288,  32.37039
  49.92290,  33.49966
  49.94292,  33.34495
  49.96293,  35.74636
  49.98295,  34.07059
  50.00297,  31.64697
  50.02299,  36.20853
  50.04301,  32.33165
  50.06303,  38.86422
  50.08305,  33.77685
  50.10307,  35.66371
  50.12309,  34.23872
  50.14311,  33.14156
  50.16313,  34.64834
  50.18315,  34.76774
  50.20317,  31.98156
  50.22319,  34.06580
  50.24321,  33.32509
  50.26323,  39.22698
  50.28325,  34.56312
  50.30327,  32.58207
  50.32329,  34.78000
  50.34331,  36.79929
  50.36333,  33.98046
  50.38335,  34.39043
  50.40337,  37.65604
  50.42339,  36.48559
  50.44341,  43.21228
  50.46343,  40.86512
  50.48345,  44.88726
  50.50347,  43.30673
  50.52349,  39.35551
  50.54350,  40.61576
  50.56352,  42.79975
  50.58354,  44.10562
  50.60356,  44.74070
  50.62358,  54.68093
  50.64360,  60.27267
  50.66362,  67.34686
  50.68364,  76.29217
  50.70366,  83.88950
  50.72368, 108.85306
  50.74370, 109.42663
  50.76372, 127.89084
  50.78374, 144.39900
  50.80376, 162.50532
  50.82378, 168.19997
  50.84380, 179.43938
  50.86382, 187.69985
  50.88384, 186.66494
  50.90386, 185.07574
  50.92388, 185.10545
  50.94390, 180.58788
  50.96392, 180.15613
  50.98394, 167.80009
  51.00396, 151.97067
  51.02398, 143.56614
  51.04400, 138.28631
  51.06402, 127.56173
  51.08404, 116.41454
  51.10406,  96.72619
  51.12408,  97.43794
  51.14410,  82.08882
  51.16412,  76.65717
  51.18414,  68.49796
  51.20416,  65.95136
  51.22418,  59.51369
  51.24420,  53.62799
  51.26422,  47.82049
  51.28423,  48.11252
  51.30425,  48.76086
  51.32427,  42.94541
  51.34429,  39.88719
  51.36431,  41.06608
  51.38433,  38.75005
  51.40435,  38.59274
  51.42437,  35.74173
  51.44439,  34.73123
  51.46441,  34.02140
  51.48443,  38.45875
  51.50445,  34.23084
  51.52447,  31.38520
  51.54449,  33.32713
  51.56451,  36.88325
  51.58453,  31.75433
  51.60455,  33.48740
  51.62457,  33.97185
  51.64459,  28.61297
  51.66461,  28.98300
  51.68463,  35.18958
  51.70465,  33.86534
  51.72467,  32.13258
  51.74469,  33.08174
  51.76471,  31.16560
  51.78473,  28.21091
  51.80475,  29.51068
  51.82477,  31.93877
  51.84479,  31.46827
  51.86481,  31.49216
  51.88483,  33.09590
  51.90485,  33.39369
  51.92487,  32.85093
  51.94489,  32.36956
  51.96491,  32.07237
  51.98493,  30.25288
  52.00495,  29.98498
  52.02497,  31.10292
  52.04499,  32.18123
  52.06501,  36.00865
  52.08503,  31.21757
  52.10505,  32.28885
  52.12507,  27.69443
  52.14509,  37.12412
  52.16511,  29.66194
  52.18513,  29.43164
  52.20515,  30.00504
  52.22517,  31.68392
  52.24519,  28.50572
  52.26521,  27.27047
  52.28523,  30.44975
  52.30525,  27.44365
  52.32527,  32.83862
  52.34529,  31.19986
  52.36531,  29.71187
  52.38533,  29.58007
  52.40535,  30.56907
  52.42537,  29.70674
  52.44539,  30.88240
  52.46541,  28.72290
  52.48543,  30.62863
  52.50545,  27.04044
  52.52547,  32.05098
  52.54549,  30.82104
  52.56551,  26.21982
  52.58553,  27.52867
  52.60555,  31.09054
  52.62557,  27.67575
  52.64559,  30.32736
  52.66561,  32.58332
  52.68563,  28.93726
  52.70565,  29.91937
  52.72567,  27.16007
  52.74569,  28.89739
  52.76571,  26.93280
  52.78573,  30.69752
  52.80575,  28.27239
  52.82577,  26.40072
  52.84579,  31.40550
  52.86581,  27.28983
  52.88583,  32.35319
  52.90585,  31.68628
  52.92587,  30.16318
  52.94589,  30.12551
  52.96591,  29.43867
  52.98593,  30.47354
  53.00595,  30.05204
  53.02597,  30.61368
  53.04599,  30.58821
  53.06601,  29.33142
  53.08603,  31.88175
  53.10605,  28.62157
  53.12607,  26.58507
  53.14609,  27.19409
  53.16611,  28.43413
  53.18613,  31.37540
  53.20615,  24.80562
  53.22617,  27.25070
  53.24619,  31.57590
  53.26621,  31.95810
  53.28623,  29.32322
  53.30625,  26.33790
  53.32627,  28.94643
  53.34629,  29.04182
  53.36631,  27.13768
  53.38633,  28.99961
  53.40635,  25.71545
  53.42637,  28.80032
  53.44639,  27.62741
  53.46641,  27.17064
  53.48643,  28.93449
  53.50645,  27.78169
  53.52647,  25.76940
  53.54650,  28.63480
  53.56652,  26.23057
  53.58654,  26.04355
  53.60656,  31.25688
  53.62657,  26.86583
  53.64660,  27.26841
  53.66662,  30.08212
  53.68664,  30.53773
  53.70666,  30.48824
  53.72668,  31.88545
  53.74670,  25.68146
  53.76672,  25.61295
  53.78674,  30.47062
  53.80676,  29.46707
  53.82678,  29.58245
  53.84680,  30.60002
  53.86682,  28.44897
  53.88684,  28.02430
  53.90686,  25.17598
  53.92688,  28.29924
  53.94690,  27.39283
  53.96692,  29.86957
  53.98694,  29.45085
  54.00696,  28.46339
  54.02698,  31.55996
  54.04700,  27.88467
  54.06702,  22.85901
  54.08704,  28.56899
  54.10706,  28.95556
  54.12708,  27.16549
  54.14710,  28.17273
  54.16712,  27.67402
  54.18714,  30.28084
  54.20716,  23.70585
  54.22718,  26.22912
  54.24720,  29.36901
  54.26722,  26.56013
  54.28724,  24.69893
  54.30726,  26.66405
  54.32728,  27.32280
  54.34731,  28.51795
  54.36733,  32.53150
  54.38735,  28.68749
  54.40737,  28.05732
  54.42739,  26.44498
  54.44741,  27.12455
  54.46743,  24.39416
  54.48745,  24.80249
  54.50747,  26.38186
  54.52749,  27.27067
  54.54751,  26.47793
  54.56753,  28.20489
  54.58755,  29.50292
  54.60757,  26.47755
  54.62759,  25.71751
  54.64761,  24.80810
  54.66763,  27.43714
  54.68765,  29.99474
  54.70767,  29.65181
  54.72769,  28.12783
  54.74771,  28.82727
  54.76773,  29.93882
  54.78775,  25.83128
  54.80777,  26.98608
  54.82779,  25.84483
  54.84781,  27.30474
  54.86784,  28.19358
  54.88786,  30.86222
  54.90788,  30.88743
  54.92790,  30.05626
  54.94792,  31.09846
  54.96794,  31.16757
  54.98796,  27.64083
  55.00798,  28.66373
  55.02800,  26.73822
  55.04802,  30.35261
  55.06804,  27.26543
  55.08806,  26.45545
  55.10808,  24.99387
  55.12810,  27.73543
  55.14812,  28.22759
  55.16814,  27.05856
  55.18816,  30.46764
  55.20818,  28.18462
  55.22820,  28.09068
  55.24822,  26.19211
  55.26824,  27.54087
  55.28827,  27.62336
  55.30829,  29.06734
  55.32831,  27.30651
  55.34833,  29.72283
  55.36835,  25.04896
  55.38837,  27.26580
  55.40839,  25.55497
  55.42841,  26.32528
  55.44843,  25.90321
  55.46845,  23.86103
  55.48847,  25.51141
  55.50849,  24.85528
  55.52851,  27.47331
  55.54853,  25.56743
  55.56855,  24.73845
  55.58857,  27.67477
  55.60859,  25.97356
  55.62861,  25.52925
  55.64864,  27.09707
  55.66866,  27.79905
  55.68868,  26.09704
  55.70870,  23.04053
  55.72872,  24.10410
  55.74874,  23.15666
  55.76876,  24.84227
  55.78878,  26.09565
  55.80880,  26.36694
  55.82882,  25.78239
  55.84884,  25.69583
  55.86886,  27.49416
  55.88888,  27.38910
  55.90890,  25.97454
  55.92892,  23.65544
  55.94894,  30.97637
  55.96897,  26.20313
  55.98899,  26.97105
  56.00901,  25.68770
  56.02903,  24.75300
  56.04905,  28.20664
  56.06907,  29.34588
  56.08909,  24.87794
  56.10911,  26.41131
  56.12913,  23.96062
  56.14915,  26.07086
  56.16917,  25.28807
  56.18919,  26.14121
  56.20921,  23.86499
  56.22923,  24.95677
  56.24925,  28.16484
  56.26927,  25.80572
  56.28930,  27.61707
  56.30932,  24.32042
  56.32934,  28.07292
  56.34936,  25.15106
  56.36938,  22.15081
  56.38940,  26.87474
  56.40942,  28.21052
  56.42944,  24.92158
  56.44946,  25.54442
  56.46948,  23.64173
  56.48950,  25.73583
  56.50952,  22.07959
  56.52954,  25.29407
  56.54956,  23.67972
  56.56959,  22.42714
  56.58961,  24.24276
  56.60963,  24.85983
  56.62965,  28.01686
  56.64967,  29.03594
  56.66969,  27.93495
  56.68971,  28.43020
  56.70973,  24.42456
  56.72975,  25.99337
  56.74977,  28.15106
  56.76979,  26.37398
  56.78981,  26.43577
  56.80984,  25.61567
  56.82986,  24.47108
  56.84988,  27.33450
  56.86990,  25.71827
  56.88992,  22.33975
  56.90994,  23.30736
  56.92996,  24.27988
  56.94998,  27.10719
  56.97000,  27.87476
  56.99002,  29.58673
  57.01004,  23.97452
  57.03006,  24.05223
  57.05008,  24.00339
  57.07011,  24.71258
  57.09013,  25.18819
  57.11015,  27.26196
  57.13017,  26.58242
  57.15019,  27.21321
  57.17021,  25.21641
  57.19023,  25.24364
  57.21025,  24.02104
  57.23027,  26.12278
  57.25029,  27.94069
  57.27032,  27.69288
  57.29034,  27.03597
  57.31036,  29.27344
  57.33038,  28.96033
  57.35040,  25.63657
  57.37042,  23.51465
  57.39044,  25.49024
  57.41046,  28.54473
  57.43048,  26.80383
  57.45050,  26.64432
  57.47052,  25.27220
  57.49054,  25.14878
  57.51057,  23.44142
  57.53059,  24.50788
  57.55061,  23.17006
  57.57063,  24.20095
  57.59065,  23.71471
  57.61067,  27.00182
  57.63069,  23.56858
  57.65071,  27.43791
  57.67073,  28.34270
  57.69075,  28.57781
  57.71078,  25.43672
  57.73080,  27.36418
  57.75082,  24.78607
  57.77084,  24.00629
  57.79086,  25.73415
  57.81088,  26.90180
  57.83090,  28.30739
  57.85092,  24.03388
  57.87094,  20.40010
  57.89096,  22.86406
  57.91099,  23.78892
  57.93101,  25.57070
  57.95103,  26.02541
  57.97105,  25.88803
  57.99107,  25.21983
  58.01109,  27.28679
  58.03111,  25.96941
  58.05113,  27.78741
  58.07115,  25.99088
  58.09117,  23.79279
  58.11120,  22.69704
  58.13122,  24.70273
  58.15124,  25.58358
  58.17126,  23.84972
  58.19128,  27.62595
  58.21130,  23.96478
  58.23132,  23.71426
  58.25134,  26.43001
  58.27136,  26.72179
  58.29138,  26.56600
  58.31141,  29.06437
  58.33143,  26.95079
  58.35145,  23.34572
  58.37147,  26.01919
  58.39149,  27.79339
  58.41151,  28.35611
  58.43153,  25.04013
  58.45156,  28.44512
  58.47158,  26.38521
  58.49160,  24.48038
  58.51162,  26.90355
  58.53164,  23.91714
  58.55166,  26.01390
  58.57168,  22.10644
  58.59170,  22.17459
  58.61172,  25.12902
  58.63174,  24.62510
  58.65177,  27.03132
  58.67179,  24.96342
  58.69181,  26.02956
  58.71183,  31.93622
  58.73185,  24.79453
  58.75187,  24.15507
  58.77189,  26.52335
  58.79191,  24.40773
  58.81194,  24.86286
  58.83196,  26.14264
  58.85198,  25.64461
  58.87200,  23.77987
  58.89202,  23.18954
  58.91204,  23.84474
  58.93206,  22.16814
  58.95208,  24.59485
  58.97211,  23.33217
  58.99213,  26.46402
  59.01215,  25.97143
  59.03217,  24.95341
  59.05219,  25.41571
  59.07221,  23.71641
  59.09223,  25.83682
  59.11226,  26.31667
  59.13228,  23.27653
  59.15230,  21.00002
  59.17232,  21.82723
  59.19234,  25.45940
  59.21236,  26.32443
  59.23238,  25.20354
  59.25240,  25.35314
  59.27242,  25.59687
  59.29245,  26.26458
  59.31247,  28.33677
  59.33249,  22.76851
  59.35251,  21.15183
  59.37253,  24.88845
  59.39255,  26.92346
  59.41257,  24.49549
  59.43259,  25.48036
  59.45262,  26.04184
  59.47264,  26.70128
  59.49266,  24.23164
  59.51268,  25.96739
  59.53270,  24.88401
  59.55272,  23.56856
  59.57274,  25.60994
  59.59277,  24.00726
  59.61279,  20.94226
  59.63281,  23.96693
  59.65283,  23.96216
  59.67285,  26.16786
  59.69287,  23.66883
  59.71289,  21.86616
  59.73292,  22.97068
  59.75294,  22.29159
  59.77296,  24.24977
  59.79298,  22.66809
  59.81300,  25.39832
  59.83302,  27.88179
  59.85304,  25.40074
  59.87307,  25.59800
  59.89309,  25.34828
  59.91311,  22.40968
  59.93313,  28.52777
  59.95315,  32.09775
  59.97317,  25.65247
  59.99319,  24.53058
  60.01322,  23.83273
  60.03324,  25.37074
  60.05326,  25.31406
  60.07328,  25.75175
  60.09330,  27.63386
  60.11332,  25.80572
  60.13335,  24.40418
  60.15337,  25.78307
  60.17339,  25.06995
  60.19341,  25.53577
  60.21343,  26.32051
  60.23345,  29.07233
  60.25347,  23.97613
  60.27349,  25.09679
  60.29352,  24.48061
  60.31354,  25.80213
  60.33356,  24.60355
  60.35358,  24.14856
  60.37360,  25.25862
  60.39363,  24.74687
  60.41365,  24.39344
  60.43367,  27.11822
  60.45369,  27.38441
  60.47371,  25.01610
  60.49373,  27.55871
  60.51375,  24.52220
  60.53378,  23.31111
  60.55380,  24.70850
  60.57382,  22.11120
  60.59384,  22.82665
  60.61386,  24.85302
  60.63388,  26.72962
  60.65391,  24.77214
  60.67393,  22.28791
  60.69395,  21.12136
  60.71397,  26.82294
  60.73399,  26.39132
  60.75401,  20.79375
  60.77404,  24.14855
  60.79406,  25.95848
  60.81408,  24.93637
  60.83410,  22.19954
  60.85412,  24.75125
  60.87414,  26.70190
  60.89416,  24.59032
  60.91419,  28.70892
  60.93421,  26.89120
  60.95423,  22.95481
  60.97425,  23.13315
  60.99427,  25.97566
  61.01430,  23.71597
  61.03432,  24.82621
  61.05434,  23.35237
  61.07436,  22.89444
  61.09438,  22.13729
  61.11440,  21.99786
  61.13442,  23.40540
  61.15445,  23.53519
  61.17447,  23.25282
  61.19449,  22.66681
  61.21451,  22.73099
  61.23453,  22.40167
  61.25456,  22.70772
  61.27458,  22.10094
  61.29460,  22.98246
  61.31462,  23.60313
  61.33464,  25.20441
  61.35466,  25.12621
  61.37469,  26.08135
  61.39471,  27.47593
  61.41473,  25.74182
  61.43475,  18.90485
  61.45477,  24.31044
  61.47479,  25.76147
  61.49482,  26.16890
  61.51484,  28.76643
  61.53486,  26.24775
  61.55488,  27.58665
  61.57490,  24.01413
  61.59492,  20.98471
  61.61495,  24.00592
  61.63497,  25.45331
  61.65499,  22.85163
  61.67501,  26.22276
  61.69504,  23.98778
  61.71506,  21.44418
  61.73508,  20.85418
  61.75510,  24.49535
  61.77512,  23.67240
  61.79514,  21.95768
  61.81517,  24.27284
  61.83519,  24.06934
  61.85521,  23.06946
  61.87523,  23.00581
  61.89525,  22.25797
  61.91527,  23.32387
  61.93530,  23.80477
  61.95532,  24.29218
  61.97534,  26.50427
  61.99536,  24.98032
  62.01538,  22.23032
  62.03541,  20.66797
  62.05543,  24.90363
  62.07545,  24.63592
  62.09547,  22.44326
  62.11549,  28.22542
  62.13552,  27.55565
  62.15554,  22.38371
  62.17556,  23.93886
  62.19558,  18.81943
  62.21560,  22.48914
  62.23563,  22.73675
  62.25565,  24.41076
  62.27567,  26.16980
  62.29569,  23.89312
  62.31571,  24.49211
  62.33574,  25.03571
  62.35576,  23.65481
  62.37578,  22.40139
  62.39580,  24.16979
  62.41582,  24.58263
  62.43585,  24.14280
  62.45587,  22.04040
  62.47589,  24.09927
  62.49591,  28.07341
  62.51593,  26.34421
  62.53596,  23.65370
  62.55598,  22.34617
  62.57600,  23.07871
  62.59602,  24.87537
  62.61604,  24.40202
  62.63607,  26.09390
  62.65609,  25.08590
  62.67611,  24.21118
  62.69613,  22.00940
  62.71615,  22.50645
  62.73618,  24.27571
  62.75620,  24.44727
  62.77622,  25.59828
  62.79624,  25.28992
  62.81626,  22.53219
  62.83629,  23.23425
  62.85631,  24.86177
  62.87633,  24.87309
  62.89635,  26.21824
  62.91637,  22.80496
  62.93640,  26.26817
  62.95642,  25.63675
  62.97644,  24.22039
  62.99646,  23.89759
  63.01649,  24.66239
  63.03651,  23.92582
  63.05653,  23.05571
  63.07655,  22.84251
  63.09657,  22.16993
  63.11660,  20.45385
  63.13662,  22.94711
  63.15664,  23.24114
  63.17666,  22.84566
  63.19668,  23.97134
  63.21671,  22.41625
  63.23673,  21.79493
  63.25675,  22.45060
  63.27677,  23.44225
  63.29680,  25.65352
  63.31682,  23.53543
  63.33684,  20.42526
  63.35686,  23.39552
  63.37689,  23.24572
  63.39691,  29.29419
  63.41693,  24.70425
  63.43695,  21.97658
  63.45697,  26.76139
  63.47700,  26.65086
  63.49702,  25.39053
  63.51704,  23.07360
  63.53706,  26.77147
  63.55709,  21.76604
  63.57711,  22.14448
  63.59713,  20.99826
  63.61715,  23.75210
  63.63718,  24.49099
  63.65720,  25.59166
  63.67722,  23.67449
  63.69724,  23.86878
  63.71726,  22.98407
  63.73729,  22.98230
  63.75731,  23.15567
  63.77733,  27.10712
  63.79735,  27.53058
  63.81737,  23.74419
  63.83740,  22.82442
  63.85742,  24.13991
  63.87744,  22.81723
  63.89746,  23.23787
  63.91749,  21.67246
  63.93751,  22.58640
  63.95753,  21.68978
  63.97755,  23.43146
  63.99758,  23.49413
  64.01760,  24.05681
  64.03762,  25.24853
  64.05764,  23.69903
  64.07767,  23.90007
  64.09769,  23.67174
  64.11771,  22.02354
  64.13773,  21.43634
  64.15776,  21.32025
  64.17778,  23.14826
  64.19780,  23.42765
  64.21782,  26.30275
  64.23785,  22.82302
  64.25787,  21.21273
  64.27789,  23.21505
  64.29791,  27.42689
  64.31793,  25.10664
  64.33796,  22.79491
  64.35798,  23.25990
  64.37800,  22.89715
  64.39803,  29.58103
  64.41805,  27.49077
  64.43807,  22.47330
  64.45809,  21.76751
  64.47812,  23.38227
  64.49814,  25.20153
  64.51816,  21.27425
  64.53818,  25.83684
  64.55820,  28.33138
  64.57823,  25.26908
  64.59825,  24.48020
  64.61827,  24.08209
  64.63830,  20.76827
  64.65832,  24.45468
  64.67834,  25.25701
  64.69836,  28.86197
  64.71839,  28.43166
  64.73841,  26.35188
  64.75843,  23.84114
  64.77845,  28.39723
  64.79848,  28.83688
  64.81850,  29.75765
  64.83852,  30.47638
  64.85854,  30.85097
  64.87857,  38.09038
  64.89859,  42.60057
  64.91861,  45.01146
  64.93863,  47.64018
  64.95866,  57.46575
  64.97868,  67.28353
  64.99870,  71.99320
  65.01872,  80.05977
  65.03875,  80.57406
  65.05877,  82.35718
  65.07879,  89.03009
  65.09881,  85.27338
  65.11884,  82.27706
  65.13886,  82.53906
  65.15888,  82.99036
  65.17891,  83.65142
  65.19893,  81.40610
  65.21895,  82.10771
  65.23897,  74.18773
  65.25900,  79.22694
  65.27902,  73.40022
  65.29904,  68.49048
  65.31906,  65.60897
  65.33909,  61.14647
  65.35911,  59.63810
  65.37913,  52.28485
  65.39916,  45.41845
  65.41918,  41.03089
  65.43920,  41.78739
  65.45922,  36.99740
  65.47925,  38.74154
  65.49927,  37.45656
  65.51929,  31.23776
  65.53931,  31.06262
  65.55934,  29.41635
  65.57936,  27.52775
  65.59938,  27.25078
  65.61941,  29.06336
  65.63943,  27.82642
  65.65945,  28.17795
  65.67947,  24.91686
  65.69950,  25.50111
  65.71952,  27.24769
  65.73954,  26.52362
  65.75957,  25.70520
  65.77959,  24.85232
  65.79961,  26.52900
  65.81963,  23.52822
  65.83966,  23.98547
  65.85968,  24.30266
  65.87970,  24.73035
  65.89973,  23.66526
  65.91975,  22.92103
  65.93977,  24.24842
  65.95979,  22.71594
  65.97982,  22.27917
  65.99984,  23.41135
  66.01986,  20.06414
  66.03988,  22.79571
  66.05991,  22.62154
  66.07993,  21.67214
  66.09995,  22.76000
  66.11998,  20.34129
  66.14000,  25.52262
  66.16002,  21.03404
  66.18005,  22.00900
  66.20007,  22.93213
  66.22009,  22.43577
  66.24011,  21.75530
  66.26014,  24.93600
  66.28016,  21.57176
  66.30018,  21.83351
  66.32021,  22.24179
  66.34023,  22.92580
  66.36025,  22.18450
  66.38027,  22.77171
  66.40030,  22.97178
  66.42032,  22.81711
  66.44034,  26.16392
  66.46037,  21.54752
  66.48039,  22.63395
  66.50041,  22.85921
  66.52044,  23.53619
  66.54046,  25.37438
  66.56048,  24.44585
  66.58051,  20.44420
  66.60053,  22.97473
  66.62055,  21.09029
  66.64057,  24.84211
  66.66060,  21.15641
  66.68062,  19.78556
  66.70064,  22.83967
  66.72067,  20.39154
  66.74069,  22.25704
  66.76071,  19.49126
  66.78074,  21.73382
  66.80076,  23.39757
  66.82078,  21.89684
  66.84080,  21.48894
  66.86083,  21.22827
  66.88085,  19.08970
  66.90088,  22.90113
  66.92090,  21.22784
  66.94092,  20.33853
  66.96094,  20.59231
  66.98097,  21.47146
  67.00099,  21.61604
  67.02101,  21.88884
  67.04104,  23.84444
  67.06106,  24.67606
  67.08108,  18.47723
  67.10111,  24.89245
  67.12113,  25.55159
  67.14115,  21.92110
  67.16118,  20.95216
  67.18120,  20.87274
  67.20122,  19.66048
  67.22125,  21.30303
  67.24127,  21.17609
  67.26129,  20.74705
  67.28131,  24.17593
  67.30134,  21.68834
  67.32136,  21.35326
  67.34138,  20.84109
  67.36141,  23.40516
  67.38143,  24.10235
  67.40145,  21.78244
  67.42148,  23.28948
  67.44150,  21.00395
  67.46152,  21.46901
  67.48155,  21.97378
  67.50157,  24.32307
  67.52159,  19.58915
  67.54162,  22.81971
  67.56164,  21.60497
  67.58166,  22.46291
  67.60169,  24.29646
  67.62171,  23.42966
  67.64173,  22.02953
  67.66176,  22.31534
  67.68178,  20.70788
  67.70180,  21.66248
  67.72183,  21.93151
  67.74185,  18.46322
  67.76187,  20.14682
  67.78190,  21.32898
  67.80192,  21.81626
  67.82194,  21.23981
  67.84197,  22.07892
  67.86199,  19.82147
  67.88201,  21.17895
  67.90204,  17.89065
  67.92206,  18.82203
  67.94208,  18.61181
  67.96211,  19.81154
  67.98213,  21.15480
  68.00216,  21.95130
  68.02218,  25.86985
  68.04220,  22.76605
  68.06222,  21.02919
  68.08225,  21.64600
  68.10227,  20.34734
  68.12229,  20.84740
  68.14232,  21.86828
  68.16234,  19.50219
  68.18237,  21.98539
  68.20239,  19.98609
  68.22241,  18.34453
  68.24244,  22.32203
  68.26246,  21.15346
  68.28248,  23.64537
  68.30251,  22.96636
  68.32253,  23.12328
  68.34255,  22.93236
  68.36258,  21.11160
  68.38260,  19.59173
  68.40262,  19.16400
  68.42265,  26.57437
  68.44267,  22.20320
  68.46269,  22.79836
  68.48272,  21.04759
  68.50274,  21.75339
  68.52277,  20.48418
  68.54279,  20.36114
  68.56281,  19.88575
  68.58284,  18.90908
  68.60286,  20.87082
  68.62288,  22.56652
  68.64291,  21.31320
  68.66293,  24.28208
  68.68295,  23.43424
  68.70298,  23.15401
  68.72300,  21.05520
  68.74302,  21.45021
  68.76305,  22.55079
  68.78307,  21.30544
  68.80310,  20.24060
  68.82312,  20.27838
  68.84314,  20.95312
  68.86317,  21.03768
  68.88319,  18.93030
  68.90321,  22.10292
  68.92324,  19.55199
  68.94326,  21.60958
  68.96328,  21.82565
  68.98331,  22.73317
  69.00333,  20.30045
  69.02336,  22.02867
  69.04338,  22.72787
  69.06340,  25.83255
  69.08343,  23.31172
  69.10345,  22.47368
  69.12347,  18.59589
  69.14350,  22.13311
  69.16352,  23.06136
  69.18355,  20.68868
  69.20357,  23.96170
  69.22359,  23.34402
  69.24362,  21.55458
  69.26364,  23.74527
  69.28366,  19.09941
  69.30369,  21.84775
  69.32371,  20.86470
  69.34374,  22.68686
  69.36376,  23.86430
  69.38378,  21.59643
  69.40381,  17.93469
  69.42383,  19.74777
  69.44386,  22.52123
  69.46388,  21.84997
  69.48390,  22.30073
  69.50393,  21.80500
  69.52395,  21.20776
  69.54397,  22.44076
  69.56400,  22.57058
  69.58402,  20.82261
  69.60405,  23.56208
  69.62407,  23.24125
  69.64409,  23.34181
  69.66412,  22.39453
  69.68414,  20.80150
  69.70416,  20.20626
  69.72419,  22.18464
  69.74421,  20.68946
  69.76424,  18.20920
  69.78426,  20.47821
  69.80428,  19.78167
  69.82431,  20.04251
  69.84433,  22.45434
  69.86436,  19.72904
  69.88438,  19.84636
  69.90440,  17.61055
  69.92443,  18.41253
  69.94445,  20.54979
  69.96448,  18.40719
  69.98450,  17.98939
  70.00452,  20.76114
  70.02455,  18.95437
  70.04457,  19.62168
  70.06460,  20.81119
  70.08462,  23.11545
  70.10464,  24.93182
  70.12467,  26.17473
  70.14469,  23.57391
  70.16472,  22.63705
  70.18474,  20.48010
  70.20476,  18.54246
  70.22479,  23.85072
  70.24481,  23.45928
  70.26484,  20.03090
  70.28486,  16.12860
  70.30488,  21.21097
  70.32491,  20.75223
  70.34493,  18.66330
  70.36496,  23.27678
  70.38498,  22.86883
  70.40500,  21.04658
  70.42503,  20.44706
  70.44505,  21.39259
  70.46508,  20.66672
  70.48510,  21.82338
  70.50513,  23.68549
  70.52515,  19.01642
  70.54517,  22.48980
  70.56520,  22.59095
  70.58522,  21.84190
  70.60525,  21.77053
  70.62527,  19.72254
  70.64529,  20.62938
  70.66532,  19.84789
  70.68534,  21.81568
  70.70537,  19.30601
  70.72539,  23.48118
  70.74542,  21.95381
  70.76544,  22.64414
  70.78546,  18.25135
  70.80549,  20.85463
  70.82551,  20.28373
  70.84554,  18.25561
  70.86556,  19.37017
  70.88558,  22.40481
  70.90561,  22.60782
  70.92563,  21.66713
  70.94566,  25.59998
  70.96568,  21.35877
  70.98571,  20.18016
  71.00573,  21.47644
  71.02576,  17.42289
  71.04578,  20.53996
  71.06580,  22.52558
  71.08583,  21.33391
  71.10585,  22.33075
  71.12588,  18.22624
  71.14590,  22.18341
  71.16593,  21.10467
  71.18595,  23.09838
  71.20597,  21.09153
  71.22600,  21.13182
  71.24602,  19.34528
  71.26605,  19.25179
  71.28607,  19.12664
  71.30610,  20.51796
  71.32612,  18.94938
  71.34614,  21.90166
  71.36617,  19.93354
  71.38619,  22.80006
  71.40622,  21.69412
  71.42624,  20.16602
  71.44627,  21.93104
  71.46629,  24.22004
  71.48632,  21.25253
  71.50634,  19.83073
  71.52636,  22.99523
  71.54639,  22.80255
  71.56641,  19.90680
  71.58644,  18.36884
  71.60646,  22.52459
  71.62649,  20.92834
  71.64651,  22.69990
  71.66654,  19.56536
  71.68656,  22.91063
  71.70658,  20.76290
  71.72661,  18.91392
  71.74663,  21.21893
  71.76666,  20.98853
  71.78668,  18.64251
  71.80671,  19.33699
  71.82673,  18.71657
  71.84676,  20.19642
  71.86678,  20.74328
  71.88681,  20.25028
  71.90683,  17.49647
  71.92685,  21.53808
  71.94688,  20.27512
  71.96690,  19.82517
  71.98693,  18.40940
  72.00695,  21.88626
  72.02698,  20.55689
  72.04700,  20.84150
  72.06703,  19.06762
  72.08705,  21.35703
  72.10708,  21.96578
  72.12710,  23.85148
  72.14713,  23.76649
  72.16715,  20.26321
  72.18717,  22.96729
  72.20720,  21.68893
  72.22722,  20.10750
  72.24725,  21.46385
  72.26727,  23.93494
  72.28730,  22.46410
  72.30732,  22.47424
  72.32735,  21.78847
  72.34737,  20.92809
  72.36740,  19.25384
  72.38742,  20.83395
  72.40745,  23.99643
  72.42747,  22.34247
  72.44750,  20.12327
  72.46752,  20.26893
  72.48755,  23.58783
  72.50757,  23.17454
  72.52759,  21.75939
  72.54762,  19.94811
  72.56764,  20.33547
  72.58767,  21.07934
  72.60769,  22.44129
  72.62772,  22.74278
  72.64774,  22.83852
  72.66777,  21.88052
  72.68779,  20.86029
  72.70782,  20.90547
  72.72784,  19.15797
  72.74787,  21.01246
  72.76789,  20.35892
  72.78792,  21.57993
  72.80794,  22.52173
  72.82797,  23.55645
  72.84799,  24.74086
  72.86802,  21.30839
  72.88804,  20.41243
  72.90807,  20.92624
  72.92809,  20.95291
  72.94812,  19.30494
  72.96814,  21.59449
  72.98817,  23.86459
  73.00819,  21.25776
  73.02822,  23.94151
  73.04824,  19.17804
  73.06826,  22.51387
  73.08829,  22.21402
  73.10831,  20.98588
  73.12834,  20.82449
  73.14836,  19.20388
  73.16839,  19.10526
  73.18842,  22.22482
  73.20844,  21.84118
  73.22847,  23.38676
  73.24849,  21.31979
  73.26851,  21.08330
  73.28854,  22.38393
  73.30856,  23.11889
  73.32859,  19.09799
  73.34862,  21.23127
  73.36864,  20.41999
  73.38866,  21.30810
  73.40869,  22.44290
  73.42872,  20.38292
  73.44874,  22.99743
  73.46876,  20.61739
  73.48879,  22.73717
  73.50881,  22.70730
  73.52884,  20.71537
  73.54887,  21.70842
  73.56889,  20.19612
  73.58892,  22.63880
  73.60894,  19.91173
  73.62897,  18.38905
  73.64899,  18.99445
  73.66902,  22.28624
  73.68904,  23.97112
  73.70907,  20.98470
  73.72909,  21.41793
  73.74912,  23.22581
  73.76914,  22.50522
  73.78917,  21.48997
  73.80919,  19.16752
  73.82922,  21.52527
  73.84924,  24.06295
  73.86927,  20.40861
  73.88929,  23.78845
  73.90932,  20.25580
  73.92934,  20.51640
  73.94937,  22.69489
  73.96939,  19.74913
  73.98942,  20.89714
  74.00944,  20.96793
  74.02947,  18.78899
  74.04949,  21.39374
  74.06952,  20.60433
  74.08954,  21.45266
  74.10957,  25.70956
  74.12960,  21.14605
  74.14962,  22.93097
  74.16965,  21.26688
  74.18967,  20.13242
  74.20970,  23.98237
  74.22972,  21.29858
  74.24975,  22.81170
  74.26977,  25.49714
  74.28980,  22.89887
  74.30982,  22.43379
  74.32985,  21.18708
  74.34987,  25.62350
  74.36990,  27.95880
  74.38993,  32.85316
  74.40995,  33.03849
  74.42998,  33.61387
  74.45000,  36.49218
  74.47003,  37.72958
  74.49005,  40.51241
  74.51008,  46.21570
  74.53010,  58.48175
  74.55013,  64.97535
  74.57015,  75.69219
  74.59018,  81.37118
  74.61020,  88.02792
  74.63023,  96.44769
  74.65025,  96.53034
  74.67028, 105.90777
  74.69031, 108.66036
  74.71033, 101.09883
  74.73036,  98.37799
  74.75038, 100.51846
  74.77041,  92.90442
  74.79043,  97.48281
  74.81046,  95.50458
  74.83048,  91.24323
  74.85051,  90.70768
  74.87053,  80.00070
  74.89056,  80.39163
  74.91059,  74.41811
  74.93061,  69.14429
  74.95064,  61.37970
  74.97066,  58.34754
  74.99069,  50.95694
  75.01071,  48.43901
  75.03074,  45.36960
  75.05077,  42.69913
  75.07079,  36.95200
  75.09082,  36.24274
  75.11084,  33.09909
  75.13087,  31.25295
  75.15089,  28.45344
  75.17092,  30.00612
  75.19094,  28.79136
  75.21097,  26.01009
  75.23100,  24.65076
  75.25102,  25.54152
  75.27105,  23.09896
  75.29107,  24.43581
  75.31110,  24.85443
  75.33112,  21.75454
  75.35115,  22.46057
  75.37118,  24.65334
  75.39120,  25.21140
  75.41123,  18.65867
  75.43125,  21.16181
  75.45128,  21.22635
  75.47131,  20.48588
  75.49133,  19.81079
  75.51136,  20.31975
  75.53138,  20.70967
  75.55141,  24.87605
  75.57143,  21.85263
  75.59146,  19.59523
  75.61148,  18.87556
  75.63151,  19.11846
  75.65154,  18.98008
  75.67156,  24.06848
  75.69159,  22.17227
  75.71161,  23.06262
  75.73164,  23.10103
  75.75167,  20.46551
  75.77169,  21.89098
  75.79172,  19.28724
  75.81174,  18.73530
  75.83177,  19.85366
  75.85179,  20.50078
  75.87182,  21.62929
  75.89185,  19.60324
  75.91187,  19.80646
  75.93190,  20.48833
  75.95192,  18.06004
  75.97195,  18.00832
  75.99198,  17.42879
  76.01200,  20.27090
  76.03203,  20.25990
  76.05205,  20.50693
  76.07208,  21.27861
  76.09211,  19.77602
  76.11213,  19.63843
  76.13216,  21.96814
  76.15218,  18.00498
  76.17221,  18.40531
  76.19224,  19.46651
  76.21226,  22.28119
  76.23229,  21.10973
  76.25231,  20.05381
  76.27234,  20.97979
  76.29237,  24.11854
  76.31239,  22.26152
  76.33242,  18.11039
  76.35244,  21.06235
  76.37247,  22.72836
  76.39250,  21.48691
  76.41252,  18.96464
  76.43255,  19.89099
  76.45257,  19.76201
  76.47260,  20.24214
  76.49263,  21.74904
  76.51265,  20.20353
  76.53268,  19.55849
  76.55270,  19.70521
  76.57273,  19.83304
  76.59276,  18.40165
  76.61278,  19.99889
  76.63281,  22.62212
  76.65283,  21.13655
  76.67286,  21.27594
  76.69289,  20.25991
  76.71291,  22.03195
  76.73294,  21.40733
  76.75297,  22.05811
  76.77299,  18.82239
  76.79302,  19.51030
  76.81304,  20.28898
  76.83307,  19.16036
  76.85310,  19.87473
  76.87312,  18.35358
  76.89315,  19.45943
  76.91318,  20.48338
  76.93320,  17.88450
  76.95323,  18.51917
  76.97325,  19.47754
  76.99328,  18.66800
  77.01331,  20.94576
  77.03333,  19.79099
  77.05336,  18.71510
  77.07339,  21.89684
  77.09341,  20.60297
  77.11344,  23.44584
  77.13347,  22.47474
  77.15349,  20.16323
  77.17352,  22.06527
  77.19354,  17.98742
  77.21357,  20.15422
  77.23360,  21.48952
  77.25362,  20.86609
  77.27365,  21.67574
  77.29367,  22.44094
  77.31370,  20.62641
  77.33373,  21.12806
  77.35376,  21.27920
  77.37378,  22.42819
  77.39381,  19.29466
  77.41383,  19.37643
  77.43386,  18.36155
  77.45389,  24.61830
  77.47391,  19.96220
  77.49394,  20.42830
  77.51397,  19.54185
  77.53399,  21.18721
  77.55402,  21.16931
  77.57405,  18.69335
  77.59407,  18.37042
  77.61410,  22.33828
  77.63412,  18.89490
  77.65415,  19.36347
  77.67418,  22.67638
  77.69420,  23.35039
  77.71423,  21.30619
  77.73426,  20.43349
  77.75428,  20.03213
  77.77431,  21.11345
  77.79434,  20.93386
  77.81436,  19.05201
  77.83439,  18.47742
  77.85442,  20.08870
  77.87444,  18.38459
  77.89447,  20.50573
  77.91450,  25.50226
  77.93452,  19.35669
  77.95455,  20.77521
  77.97458,  17.91183
  77.99460,  19.86249
  78.01463,  19.52000
  78.03466,  22.23318
  78.05468,  20.87656
  78.07471,  19.72414
  78.09474,  18.29057
  78.11476,  19.82501
  78.13479,  20.02841
  78.15482,  21.52907
  78.17484,  17.54621
  78.19487,  20.31487
  78.21490,  19.32197
  78.23492,  19.06172
  78.25495,  18.08322
  78.27498,  19.96577
  78.29500,  19.44913
  78.31503,  19.48502
  78.33506,  20.10311
  78.35508,  21.57080
  78.37511,  17.88289
  78.39514,  19.43139
  78.41517,  21.07094
  78.43519,  18.93719
  78.45522,  19.35123
  78.47525,  18.42060
  78.49527,  21.14153
  78.51530,  19.82675
  78.53533,  19.63217
  78.55535,  21.03296
  78.57538,  18.01665
  78.59541,  17.83556
  78.61543,  19.58995
  78.63546,  20.82380
  78.65549,  19.58055
  78.67551,  17.83016
  78.69554,  18.91161
  78.71557,  17.47268
  78.73559,  17.75350
  78.75562,  19.67718
  78.77565,  18.25076
  78.79568,  17.72148
  78.81570,  20.14003
  78.83573,  22.50718
  78.85576,  20.04863
  78.87578,  21.81301
  78.89581,  21.88189
  78.91584,  19.55242
  78.93586,  19.49529
  78.95589,  20.99189
  78.97592,  19.58733
  78.99595,  17.05740
  79.01597,  20.36557
  79.03600,  17.99439
  79.05603,  21.65637
  79.07605,  21.22063
  79.09608,  20.13623
  79.11611,  18.54814
  79.13613,  19.57491
  79.15616,  22.92339
  79.17619,  19.94567
  79.19622,  21.00883
  79.21624,  21.75473
  79.23627,  19.52763
  79.25630,  19.99410
  79.27632,  19.65297
  79.29635,  16.75577
  79.31638,  17.75693
  79.33640,  17.22975
  79.35643,  20.05071
  79.37646,  20.18812
  79.39649,  21.00222
  79.41651,  16.90421
  79.43654,  22.39698
  79.45657,  20.91938
  79.47660,  16.01754
  79.49662,  20.18976
  79.51665,  18.44422
  79.53668,  20.31354
  79.55670,  20.58014
  79.57673,  19.59769
  79.59676,  20.30744
  79.61679,  16.54231
  79.63681,  20.56702
  79.65684,  19.69664
  79.67687,  20.13852
  79.69690,  21.28494
  79.71692,  19.57746
  79.73695,  20.52559
  79.75698,  19.21331
  79.77701,  20.47005
  79.79703,  18.14381
  79.81706,  17.36814
  79.83709,  18.97237
  79.85711,  18.69485
  79.87714,  21.05925
  79.89717,  21.73507
  79.91720,  17.83501
  79.93722,  19.57198
  79.95725,  20.13822
  79.97728,  21.21932
  79.99731,  19.89705
  80.01733,  20.42277
  80.03736,  21.29344
  80.05739,  17.59992
  80.07742,  19.28609
  80.09744,  18.77023
  80.11747,  19.81995
  80.13750,  19.37378
  80.15753,  18.01168
  80.17755,  19.35630
  80.19758,  17.36279
  80.21761,  19.70788
  80.23764,  18.10866
  80.25766,  20.81201
  80.27769,  20.45996
  80.29772,  20.40207
  80.31775,  20.19976
  80.33777,  21.23906
  80.35780,  19.16612
  80.37783,  21.70616
  80.39786,  19.66339
  80.41788,  19.74074
  80.43791,  18.30804
  80.45794,  18.99936
  80.47797,  18.50202
  80.49800,  19.80177
  80.51802,  18.80823
  80.53805,  19.44026
  80.55808,  22.80386
  80.57811,  20.04461
  80.59813,  21.15176
  80.61816,  20.54501
  80.63819,  19.26017
  80.65822,  17.71520
  80.67824,  21.29427
  80.69827,  19.25920
  80.71830,  19.34259
  80.73833,  17.79568
  80.75835,  21.67096
  80.77838,  22.25782
  80.79841,  17.89425
  80.81844,  18.88072
  80.83847,  20.61183
  80.85849,  20.39095
  80.87852,  19.40820
  80.89855,  18.02684
  80.91858,  22.33011
  80.93860,  21.14271
  80.95863,  19.96919
  80.97866,  21.42690
  80.99869,  21.53588
  81.01872,  18.76997
  81.03874,  20.34914
  81.05877,  19.72466
  81.07880,  19.21459
  81.09883,  18.75983
  81.11885,  21.00562
  81.13888,  19.61781
  81.15891,  21.09482
  81.17894,  20.22519
  81.19897,  17.42718
  81.21900,  20.16576
  81.23902,  21.40265
  81.25905,  20.02105
  81.27908,  23.05338
  81.29911,  21.18979
  81.31913,  19.05162
  81.33916,  18.91518
  81.35919,  22.28945
  81.37922,  23.96276
  81.39925,  23.84520
  81.41927,  23.50025
  81.43930,  20.64903
  81.45933,  20.77039
  81.47936,  21.21867
  81.49939,  18.15790
  81.51941,  19.79256
  81.53944,  24.16645
  81.55947,  21.47906
  81.57950,  19.70621
  81.59953,  23.22577
  81.61955,  20.83405
  81.63958,  22.07736
  81.65961,  21.20028
  81.67964,  20.32087
  81.69967,  21.22857
  81.71969,  21.09958
  81.73972,  21.12665
  81.75975,  18.21956
  81.77978,  22.47842
  81.79981,  21.60969
  81.81984,  21.46803
  81.83986,  21.43911
  81.85989,  21.66473
  81.87992,  22.13228
  81.89995,  25.72902
  81.91998,  24.24410
  81.94000,  23.13734
  81.96003,  23.66814
  81.98006,  21.84767
  82.00009,  27.50324
  82.02012,  28.28420
  82.04015,  28.61402
  82.06017,  32.68106
  82.08020,  34.79234
  82.10023,  36.11663
  82.12026,  42.70847
  82.14029,  47.51068
  82.16032,  54.51548
  82.18034,  55.22206
  82.20037,  60.01510
  82.22040,  70.99424
  82.24043,  79.84798
  82.26046,  83.42422
  82.28049,  92.42042
  82.30052,  90.30984
  82.32054,  90.60722
  82.34057,  92.25419
  82.36060,  93.96347
  82.38063,  93.28841
  82.40066,  95.00212
  82.42068,  87.20344
  82.44071,  81.65228
  82.46074,  81.12987
  82.48077,  76.45624
  82.50080,  67.64205
  82.52083,  69.80125
  82.54086,  66.04642
  82.56088,  61.81981
  82.58091,  59.44813
  82.60094,  60.56530
  82.62097,  54.15981
  82.64100,  48.91978
  82.66103,  43.16994
  82.68106,  40.29930
  82.70108,  41.20716
  82.72111,  38.08234
  82.74114,  36.14136
  82.76117,  32.06623
  82.78120,  34.47278
  82.80123,  27.56321
  82.82126,  23.09206
  82.84128,  26.06590
  82.86131,  24.33860
  82.88134,  24.56639
  82.90137,  23.64969
  82.92140,  21.25846
  82.94143,  24.25035
  82.96146,  23.39513
  82.98148,  20.69415
  83.00151,  22.89014
  83.02154,  21.27661
  83.04157,  23.02659
  83.06160,  20.68561
  83.08163,  19.50144
  83.10166,  20.34782
  83.12169,  21.45981
  83.14171,  17.85166
  83.16174,  20.75249
  83.18177,  17.13449
  83.20180,  22.10734
  83.22183,  22.11894
  83.24186,  21.33315
  83.26189,  23.40314
  83.28192,  19.36760
  83.30194,  20.24025
  83.32197,  18.23931
  83.34200,  18.78870
  83.36203,  22.19670
  83.38206,  20.16638
  83.40209,  21.50512
  83.42212,  21.00596
  83.44215,  22.55540
  83.46218,  18.34570
  83.48220,  20.03814
  83.50223,  18.81344
  83.52226,  23.27124
  83.54229,  22.00909
  83.56232,  20.37521
  83.58235,  19.89927
  83.60238,  23.92194
  83.62241,  20.70969
  83.64244,  19.23049
  83.66247,  19.47846
  83.68249,  19.13493
  83.70252,  16.35637
  83.72255,  18.94705
  83.74258,  18.78523
  83.76261,  19.09975
  83.78264,  19.60354
  83.80267,  21.12724
  83.82270,  19.57386
  83.84273,  18.99093
  83.86276,  21.71222
  83.88279,  19.66274
  83.90281,  20.10180
  83.92284,  19.91468
  83.94287,  21.98881
  83.96290,  21.74314
  83.98293,  17.75982
  84.00296,  18.62580
  84.02299,  20.08264
  84.04302,  20.72480
  84.06305,  16.84241
  84.08308,  19.27200
  84.10311,  18.85419
  84.12313,  17.81818
  84.14316,  19.61601
  84.16319,  19.04328
  84.18322,  21.36220
  84.20325,  20.11701
  84.22328,  18.75274
  84.24331,  21.15055
  84.26334,  20.52845
  84.28337,  19.26110
  84.30340,  20.56139
  84.32343,  23.11829
  84.34346,  21.78206
  84.36349,  18.74637
  84.38351,  18.19309
  84.40354,  17.36329
  84.42357,  20.56568
  84.44360,  19.61857
  84.46363,  22.07793
  84.48366,  21.61661
  84.50369,  21.94746
  84.52372,  20.77970
  84.54375,  18.43263
  84.56378,  22.25424
  84.58381,  20.72719
  84.60384,  18.83546
  84.62387,  17.87782
  84.64390,  17.74294
  84.66393,  17.83074
  84.68396,  19.75307
  84.70398,  20.84715
  84.72401,  19.53198
  84.74404,  17.28323
  84.76407,  19.52011
  84.78410,  18.19115
  84.80413,  19.43350
  84.82416,  22.91875
  84.84419,  19.97437
  84.86422,  19.52871
  84.88425,  19.55016
  84.90428,  20.05438
  84.92431,  18.68593
  84.94434,  19.15151
  84.96437,  17.65638
  84.98440,  15.71306
  85.00443,  21.41980
  85.02446,  20.69642
  85.04449,  20.99102
  85.06452,  19.36134
  85.08455,  16.36632
  85.10458,  16.93091
  85.12461,  17.87150
  85.14464,  15.71260
  85.16466,  16.93414
  85.18470,  18.72406
  85.20472,  20.44206
  85.22475,  20.29107
  85.24478,  22.00787
  85.26481,  20.98950
  85.28484,  19.32215
  85.30487,  18.87091
  85.32490,  17.49985
  85.34493,  21.79534
  85.36496,  22.34669
  85.38499,  17.50247
  85.40502,  18.50699
  85.42505,  19.02335
  85.44508,  21.14609
  85.46511,  20.42338
  85.48514,  20.62053
  85.50517,  19.55541
  85.52520,  18.73171
  85.54523,  19.59797
  85.56526,  21.64574
  85.58529,  19.93812
  85.60532,  18.93157
  85.62535,  20.65601
  85.64538,  17.24810
  85.66541,  18.01643
  85.68544,  19.78101
  85.70547,  19.08553
  85.72550,  20.06942
  85.74553,  21.29625
  85.76556,  21.71251
  85.78559,  20.32431
  85.80562,  17.93352
  85.82565,  18.38249
  85.84568,  21.44157
  85.86571,  17.08004
  85.88574,  17.30312
  85.90577,  17.67762
  85.92580,  20.59751
  85.94583,  18.10038
  85.96586,  19.06127
  85.98589,  17.99947
  86.00592,  17.45838
  86.02595,  19.46960
  86.04598,  18.61354
  86.06601,  19.94830
  86.08604,  21.56270
  86.10607,  19.05366
  86.12610,  17.19758
  86.14613,  21.13488
  86.16616,  20.51289
  86.18619,  20.13278
  86.20622,  18.54961
  86.22625,  20.71689
  86.24628,  20.95584
  86.26631,  21.03380
  86.28634,  20.15069
  86.30637,  18.92986
  86.32640,  20.52147
  86.34643,  19.75160
  86.36646,  19.24236
  86.38649,  20.08013
  86.40652,  17.50780
  86.42655,  19.09184
  86.44659,  17.63378
  86.46661,  19.74366
  86.48665,  18.91577
  86.50668,  17.97579
  86.52671,  19.86215
  86.54674,  18.32952
  86.56677,  18.31280
  86.58680,  19.02268
  86.60683,  18.57854
  86.62686,  17.62409
  86.64689,  18.05499
  86.66692,  21.05108
  86.68695,  20.05904
  86.70698,  21.61876
  86.72701,  21.72530
  86.74704,  20.25825
  86.76707,  19.93470
  86.78710,  21.77780
  86.80713,  20.53762
  86.82716,  18.80832
  86.84719,  20.29294
  86.86722,  18.48334
  86.88725,  21.27602
  86.90728,  20.02329
  86.92731,  20.19218
  86.94735,  17.28725
  86.96738,  21.15424
  86.98741,  19.55827
  87.00744,  18.00972
  87.02747,  19.40444
  87.04750,  16.81166
  87.06753,  20.08995
  87.08756,  19.83742
  87.10759,  20.09620
  87.12762,  19.34788
  87.14765,  20.64931
  87.16768,  17.49663
  87.18771,  18.65243
  87.20774,  18.30409
  87.22777,  19.12179
  87.24780,  22.97229
  87.26784,  19.89380
  87.28787,  18.48684
  87.30790,  20.11828
  87.32793,  21.65305
  87.34796,  20.87903
  87.36799,  19.00328
  87.38802,  19.52441
  87.40805,  21.42412
  87.42808,  18.07729
  87.44811,  20.46784
  87.46814,  19.67870
  87.48817,  20.19614
  87.50820,  19.88678
  87.52824,  20.67855
  87.54827,  19.28028
  87.56830,  19.52808
  87.58833,  19.56979
  87.60836,  16.49959
  87.62839,  17.72931
  87.64842,  15.85102
  87.66845,  16.27532
  87.68848,  18.67861
  87.70851,  18.69889
  87.72854,  20.05101
  87.74858,  21.53137
  87.76861,  20.34983
  87.78864,  20.88348
  87.80867,  19.51697
  87.82870,  22.16824
  87.84873,  18.69507
  87.86876,  19.53145
  87.88879,  20.37808
  87.90882,  18.91948
  87.92885,  19.33990
  87.94889,  22.46568
  87.96892,  21.03179
  87.98895,  20.40256
  88.00898,  18.67895
  88.02901,  19.34952
  88.04904,  18.16494
  88.06907,  17.80098
  88.08910,  17.86713
  88.10913,  21.12222
  88.12917,  18.05200
  88.14920,  20.79661
  88.16923,  19.21083
  88.18926,  18.04035
  88.20929,  16.52033
  88.22932,  18.17109
  88.24935,  21.67648
  88.26938,  18.86281
  88.28942,  18.47649
  88.30945,  18.27167
  88.32948,  19.00719
  88.34951,  16.66901
  88.36954,  20.59184
  88.38957,  20.24731
  88.40960,  18.36466
  88.42964,  19.50642
  88.44967,  18.63216
  88.46970,  18.46869
  88.48973,  18.40951
  88.50976,  17.77403
  88.52979,  17.61820
  88.54982,  16.55588
  88.56986,  16.93492
  88.58989,  18.60351
  88.60992,  19.50812
  88.62995,  20.11818
  88.64998,  19.96171
  88.67001,  19.94951
  88.69004,  18.53797
  88.71007,  20.15971
  88.73011,  22.63265
  88.75014,  19.38961
  88.77017,  19.55731
  88.79020,  19.68751
  88.81023,  21.58808
  88.83026,  20.15857
  88.85030,  17.74399
  88.87033,  16.90867
  88.89036,  21.90803
  88.91039,  19.86412
  88.93042,  20.05780
  88.95045,  16.63103
  88.97048,  17.83319
  88.99052,  19.23674
  89.01055,  20.67212
  89.03058,  20.31003
  89.05061,  17.80085
  89.07064,  18.31528
  89.09067,  18.97525
  89.11071,  20.04368
  89.13074,  21.95344
  89.15077,  20.82830
  89.17080,  20.02487
  89.19083,  18.04001
  89.21087,  20.07593
  89.23090,  21.76664
  89.25093,  18.69045
  89.27096,  21.02232
  89.29099,  16.17041
  89.31102,  17.31627
  89.33106,  19.62650
  89.35109,  21.72907
  89.37112,  22.76976
  89.39115,  19.95789
  89.41118,  18.82297
  89.43122,  19.24355
  89.45125,  18.60625
  89.47128,  17.47570
  89.49131,  19.31126
  89.51134,  20.29400
  89.53137,  19.55929
  89.55141,  19.69095
  89.57144,  20.15556
  89.59147,  20.22025
  89.61150,  20.83779
  89.63153,  19.65172
  89.65157,  19.85515
  89.67160,  20.24522
  89.69163,  18.87926
  89.71166,  19.08574
  89.73169,  20.33845
  89.75173,  20.47435
  89.77176,  21.40913
  89.79179,  22.00957
  89.81182,  21.31085
  89.83185,  20.44779
  89.85189,  21.49391
  89.87192,  21.77863
  89.89195,  22.79707
  89.91198,  20.12131
  89.93201,  21.71458
  89.95205,  20.87852
  89.97208,  20.39719
  89.99211,  22.37524
  90.01214,  21.60876
  90.03217,  22.66487
  90.05221,  21.23263
  90.07224,  20.60044
  90.09227,  21.72809
  90.11231,  20.55959
  90.13234,  22.10431
  90.15237,  20.01597
  90.17240,  23.96377
  90.19243,  26.72844
  90.21247,  23.91188
  90.23250,  24.60828
  90.25253,  28.45443
  90.27256,  25.57043
  90.29260,  26.53442
  90.31263,  30.04565
  90.33266,  31.88579
  90.35269,  34.64684
  90.37272,  36.62588
  90.39276,  41.04769
  90.41279,  47.02265
  90.43282,  51.94515
  90.45285,  57.91987
  90.47289,  64.87825
  90.49292,  69.82962
  90.51295,  77.79445
  90.53298,  82.58235
  90.55302,  82.21901
  90.57305,  89.91498
  90.59308,  89.08171
  90.61311,  91.99958
  90.63315,  81.33271
  90.65318,  83.90832
  90.67321,  81.01504
  90.69325,  76.55063
  90.71328,  75.16336
  90.73331,  70.29029
  90.75334,  73.77414
  90.77337,  64.84308
  90.79341,  62.86890
  90.81344,  66.01675
  90.83347,  61.81849
  90.85351,  64.00072
  90.87354,  59.97764
  90.89357,  58.89997
  90.91360,  55.90085
  90.93364,  52.34526
  90.95367,  51.33123
  90.97370,  50.90389
  90.99373,  48.36930
  91.01377,  45.84112
  91.03380,  39.64849
  91.05383,  33.83601
  91.07387,  33.34323
  91.09390,  33.46349
  91.11393,  30.82927
  91.13396,  25.65051
  91.15400,  28.58105
  91.17403,  24.31254
  91.19406,  24.90006
  91.21410,  25.46152
  91.23413,  23.11391
  91.25416,  24.30152
  91.27419,  21.91370
  91.29423,  21.94817
  91.31426,  22.06301
  91.33429,  21.49500
  91.35433,  22.92193
  91.37436,  21.80144
  91.39439,  19.55300
  91.41443,  21.89812
  91.43446,  22.04937
  91.45449,  18.54053
  91.47452,  22.24407
  91.49456,  20.20376
  91.51459,  18.98932
  91.53462,  16.98181
  91.55466,  19.31141
  91.57469,  21.58451
  91.59472,  21.33845
  91.61475,  18.13666
  91.63479,  20.63175
  91.65482,  19.60872
  91.67485,  18.88706
  91.69489,  19.96428
  91.71492,  21.20512
  91.73495,  20.68465
  91.75499,  20.79265
  91.77502,  20.79672
  91.79505,  20.50755
  91.81509,  20.60372
  91.83512,  16.71236
  91.85515,  19.11076
  91.87519,  22.49324
  91.89522,  18.49924
  91.91525,  17.06308
  91.93529,  21.20991
  91.95532,  18.09008
  91.97535,  19.40317
  91.99539,  19.88693
  92.01542,  19.44142
  92.03545,  18.03426
  92.05549,  18.99651
  92.07552,  20.55581
  92.09555,  17.97022
  92.11559,  19.52306
  92.13562,  20.82836
  92.15565,  16.60636
  92.17569,  19.79912
  92.19572,  19.03138
  92.21575,  16.22628
  92.23579,  19.46789
  92.25582,  20.22673
  92.27585,  18.34988
  92.29589,  18.67836
  92.31592,  18.64056
  92.33596,  18.49316
  92.35599,  17.50837
  92.37602,  18.43448
  92.39606,  17.96399
  92.41609,  18.97711
  92.43612,  16.23431
  92.45616,  20.56936
  92.47619,  18.96825
  92.49622,  19.63069
  92.51626,  19.95982
  92.53629,  18.68047
  92.55632,  17.70715
  92.57636,  16.85675
  92.59639,  19.95169
  92.61643,  18.22585
  92.63646,  17.96425
  92.65649,  16.65134
  92.67653,  18.90358
  92.69656,  17.04654
  92.71659,  19.61882
  92.73663,  19.44043
  92.75666,  17.45028
  92.77670,  17.22815
  92.79673,  19.27323
  92.81676,  19.43577
  92.83680,  18.72520
  92.85683,  17.43097
  92.87686,  16.44415
  92.89690,  16.48606
  92.91693,  19.89007
  92.93697,  20.50763
  92.95700,  20.66773
  92.97703,  20.91003
  92.99707,  18.38775
  93.01710,  19.77122
  93.03714,  17.72875
  93.05717,  18.93387
  93.07721,  19.41855
  93.09724,  18.67373
  93.11727,  20.21610
  93.13731,  19.96173
  93.15734,  17.29197
  93.17737,  18.01297
  93.19741,  21.90745
  93.21744,  19.23811
  93.23748,  16.95777
  93.25751,  17.39758
  93.27755,  20.14832
  93.29758,  18.59287
  93.31761,  18.62258
  93.33765,  18.84142
  93.35768,  20.80163
  93.37772,  17.62224
  93.39775,  20.57836
  93.41778,  21.39736
  93.43782,  18.82157
  93.45785,  16.02696
  93.47789,  20.10104
  93.49792,  16.32632
  93.51796,  18.46872
  93.53799,  18.18652
  93.55802,  20.05554
  93.57806,  19.00157
  93.59809,  19.21333
  93.61813,  15.67627
  93.63816,  17.74075
  93.65820,  17.68843
  93.67823,  19.56562
  93.69827,  19.04456
  93.71830,  20.51130
  93.73833,  19.27881
  93.75837,  17.17433
  93.77840,  20.10643
  93.79844,  17.91248
  93.81847,  19.46583
  93.83851,  19.40472
  93.85854,  18.04953
  93.87858,  17.85968
  93.89861,  17.85237
  93.91864,  19.24269
  93.93868,  18.72177
  93.95871,  18.37809
  93.97875,  19.19312
  93.99878,  17.16836
  94.01882,  17.41855
  94.03885,  18.29527
  94.05889,  18.98039
  94.07892,  23.03506
  94.09896,  17.59341
  94.11899,  15.62809
  94.13902,  16.13755
  94.15906,  19.34474
  94.17910,  19.41218
  94.19913,  18.82085
  94.21916,  19.02607
  94.23920,  18.18094
  94.25923,  16.71901
  94.27927,  17.28398
  94.29930,  17.59566
  94.31934,  17.77537
  94.33937,  17.70157
  94.35941,  19.28373
  94.37944,  16.34839
  94.39948,  19.12965
  94.41951,  17.91312
  94.43955,  18.46210
  94.45958,  18.43879
  94.47962,  19.36228
  94.49965,  18.06795
  94.51969,  21.34315
  94.53972,  17.96198
  94.55976,  16.76191
  94.57979,  15.60502
  94.59983,  19.29753
  94.61986,  18.52000
  94.63990,  18.68621
  94.65993,  18.87435
  94.67997,  18.39096
  94.70000,  18.19814
  94.72004,  18.43005
  94.74007,  19.16415
  94.76011,  18.47012
  94.78014,  18.76587
  94.80018,  17.67719
  94.82021,  19.13067
  94.84025,  18.62299
  94.86028,  18.75439
  94.88032,  17.25446
  94.90035,  17.27399
  94.92039,  17.93899
  94.94042,  17.02920
  94.96046,  18.16669
  94.98049,  19.18961
  95.00053,  18.61896
  95.02056,  17.11362
  95.04060,  18.49087
  95.06063,  17.23406
  95.08067,  16.97975
  95.10071,  16.37568
  95.12074,  19.53535
  95.14078,  19.04581
  95.16081,  17.35220
  95.18085,  18.10902
  95.20088,  16.95233
  95.22092,  19.64314
  95.24095,  19.92666
  95.26099,  19.14841
  95.28102,  17.48503
  95.30106,  17.86897
  95.32109,  19.33296
  95.34113,  17.43584
  95.36117,  20.41627
  95.38120,  19.10389
  95.40124,  18.45860
  95.42127,  18.48345
  95.44131,  18.25465
  95.46134,  18.33868
  95.48138,  15.41708
  95.50141,  19.28267
  95.52145,  19.67680
  95.54149,  22.17737
  95.56152,  21.22448
  95.58156,  20.32670
  95.60159,  23.12104
  95.62163,  25.20324
  95.64166,  23.93772
  95.66170,  29.09287
  95.68174,  28.46083
  95.70177,  28.42187
  95.72181,  31.08655
  95.74184,  37.35778
  95.76188,  39.04200
  95.78191,  37.97272
  95.80195,  39.56893
  95.82199,  40.75317
  95.84202,  40.13095
  95.86206,  40.77963
  95.88209,  40.02192
  95.90213,  39.91639
  95.92216,  36.28256
  95.94220,  36.44915
  95.96224,  33.43021
  95.98227,  34.17113
  96.00231,  31.05137
  96.02234,  32.89450
  96.04238,  32.14287
  96.06242,  34.83122
  96.08245,  33.16106
  96.10249,  33.35346
  96.12252,  29.94130
  96.14256,  27.53724
  96.16260,  29.25591
  96.18263,  25.97403
  96.20267,  28.87308
  96.22271,  27.36128
  96.24274,  31.83649
  96.26278,  31.23255
  96.28281,  23.17193
  96.30285,  25.99915
  96.32289,  22.84962
  96.34292,  20.88786
  96.36296,  22.54398
  96.38299,  22.11759
  96.40303,  21.55960
  96.42307,  21.34879
  96.44310,  20.82763
  96.46314,  22.48438
  96.48318,  21.61111
  96.50321,  20.77899
  96.52325,  19.22741
  96.54328,  20.57789
  96.56332,  20.42769
  96.58336,  19.64696
  96.60339,  19.26594
  96.62343,  15.76849
  96.64347,  20.73218
  96.66350,  19.08716
  96.68354,  18.53986
  96.70358,  19.72443
  96.72361,  18.27713
  96.74365,  17.01315
  96.76368,  19.29689
  96.78372,  18.94751
  96.80376,  19.69369
  96.82379,  18.17625
  96.84383,  19.67943
  96.86387,  18.46043
  96.88390,  18.83039
  96.90394,  20.11573
  96.92398,  20.86346
  96.94401,  19.27563
  96.96405,  18.08864
  96.98409,  18.21376
  97.00412,  17.33309
  97.02416,  16.13444
  97.04420,  17.99390
  97.06423,  20.32267
  97.08427,  16.24873
  97.10431,  16.83872
  97.12434,  15.99390
  97.14438,  15.80345
  97.16442,  20.83435
  97.18445,  18.43549
  97.20449,  17.90512
  97.22453,  17.94988
  97.24456,  15.99579
  97.26460,  18.98257
  97.28464,  17.20242
  97.30467,  17.87855
  97.32471,  19.87646
  97.34475,  19.49186
  97.36479,  18.21190
  97.38482,  20.23821
  97.40486,  18.58946
  97.42490,  19.68014
  97.44493,  19.35635
  97.46497,  17.89108
  97.48501,  19.97998
  97.50504,  21.28229
  97.52508,  20.50119
  97.54512,  17.74037
  97.56516,  18.21245
  97.58519,  18.73145
  97.60523,  17.81567
  97.62527,  19.54577
  97.64530,  18.33049
  97.66534,  20.43936
  97.68538,  18.87745
  97.70542,  20.18549
  97.72545,  18.13523
  97.74549,  17.21293
  97.76553,  18.05409
  97.78556,  17.51942
  97.80560,  17.07420
  97.82564,  18.45131
  97.84568,  19.09657
  97.86571,  18.32363
  97.88575,  18.55424
  97.90579,  18.50505
  97.92582,  19.29631
  97.94586,  15.24817
  97.96590,  19.64340
  97.98594,  17.95504
  98.00597,  19.86512
  98.02601,  17.52613
  98.04605,  18.85788
  98.06609,  18.10904
  98.08612,  15.93673
  98.10616,  17.89657
  98.12620,  20.18648
  98.14624,  18.47614
  98.16627,  17.68149
  98.18631,  18.84282
  98.20635,  17.89263
  98.22639,  18.61206
  98.24642,  17.22907
  98.26646,  18.28452
  98.28650,  18.14558
  98.30654,  18.73299
  98.32657,  18.96279
  98.34661,  22.28369
  98.36665,  19.32410
  98.38669,  21.15216
  98.40672,  19.08695
  98.42676,  20.94450
  98.44680,  18.28431
  98.46684,  19.25834
  98.48688,  18.41175
  98.50691,  19.52880
  98.52695,  20.33635
  98.54699,  22.83044
  98.56703,  21.35871
  98.58706,  20.26448
  98.60710,  23.62448
  98.62714,  24.41394
  98.64718,  25.23528
  98.66721,  26.85137
  98.68725,  30.09213
  98.70729,  31.75798
  98.72733,  30.96418
  98.74737,  36.30745
  98.76741,  35.70432
  98.78744,  36.86615
  98.80748,  36.05157
  98.82752,  38.40690
  98.84756,  40.34236
  98.86760,  36.11584
  98.88763,  39.07352
  98.90767,  35.50791
  98.92771,  31.76565
  98.94775,  33.03732
  98.96779,  32.38267
  98.98782,  28.56301
  99.00786,  30.75258
  99.02790,  29.66208
  99.04794,  27.74854
  99.06798,  24.18584
  99.08802,  26.21223
  99.10805,  27.18790
  99.12809,  28.16183
  99.14813,  26.09457
  99.16817,  28.28338
  99.18821,  27.48615
  99.20825,  29.63162
  99.22828,  30.74338
  99.24832,  26.06839
  99.26836,  24.88243
  99.28840,  21.52173
  99.30844,  22.04926
  99.32847,  21.16874
  99.34851,  21.12197
  99.36855,  21.69245
  99.38859,  21.84177
  99.40863,  19.87283
  99.42867,  20.03318
  99.44871,  19.00112
  99.46874,  20.83909
  99.48878,  18.77180
  99.50882,  19.02864
  99.52886,  16.98124
  99.54890,  17.23767
  99.56894,  18.91323
  99.58898,  18.91420
  99.60901,  18.91024
  99.62905,  18.54160
  99.64909,  20.89966
  99.66913,  20.18017
  99.68917,  18.45014
  99.70921,  16.11151
  99.72925,  17.79407
  99.74928,  14.32921
  99.76932,  14.92597
  99.78936,  17.55083
  99.80940,  15.14904
  99.82944,  19.52942
  99.84948,  18.88115
  99.86952,  18.52701
  99.88956,  19.90139
  99.90960,  19.04628
  99.92963,  18.80939
  99.94967,  20.02088
  99.96971,  19.79460
  99.98975,  17.42900
 100.00979,  16.87515
 100.02983,  18.27219
 100.04987,  18.37026
 100.06991,  15.72528
 100.08995,  16.54575
 100.10998,  16.74406
 100.13002,  17.76676
 100.15006,  15.53112
 100.17010,  16.03085
 100.19014,  18.78001
 100.21018,  17.79596
 100.23022,  17.08258
 100.25026,  17.53496
 100.27030,  20.75165
 100.29034,  18.59442
 100.31038,  17.42329
 100.33041,  17.36736
 100.35045,  20.55865
 100.37049,  20.42720
 100.39053,  19.87365
 100.41057,  18.56974
 100.43061,  15.56314
 100.45065,  16.10751
 100.47069,  16.60464
 100.49073,  18.45873
 100.51077,  18.14042
 100.53081,  18.13570
 100.55085,  18.51957
 100.57089,  17.37422
 100.59093,  18.41782
 100.61097,  18.46161
 100.63101,  17.37780
 100.65104,  17.25669
 100.67108,  19.65437
 100.69112,  20.77279
 100.71116,  20.36997
 100.73120,  17.88396
 100.75124,  15.67887
 100.77128,  16.89569
 100.79132,  17.61034
 100.81136,  16.42469
 100.83140,  18.23091
 100.85144,  14.92915
 100.87148,  15.88900
 100.89152,  18.61005
 100.91156,  20.97954
 100.93160,  20.18834
 100.95164,  17.24656
 100.97168,  19.17421
 100.99172,  18.19565
 101.01176,  17.78635
 101.03180,  18.16219
 101.05184,  19.59639
 101.07188,  15.72019
 101.09192,  18.91020
 101.11196,  17.26899
 101.13200,  18.34261
 101.15204,  16.90757
 101.17208,  18.40812
 101.19212,  19.67508
 101.21216,  18.93985
 101.23220,  18.42216
 101.25224,  16.20148
 101.27228,  17.79172
 101.29232,  19.39839
 101.31236,  17.11446
 101.33239,  16.52729
 101.35244,  18.07044
 101.37248,  17.56261
 101.39252,  18.83158
 101.41256,  18.80999
 101.43260,  20.04618
 101.45264,  16.68383
 101.47268,  16.88452
 101.49272,  16.35374
 101.51276,  17.64986
 101.53280,  17.99220
 101.55284,  16.62996
 101.57288,  16.97188
 101.59292,  16.32537
 101.61296,  19.31107
 101.63300,  19.43149
 101.65304,  15.31452
 101.67308,  18.10704
 101.69312,  19.54891
 101.71316,  16.98579
 101.73320,  18.01040
 101.75324,  17.52628
 101.77328,  17.23007
 101.79332,  17.49969
 101.81336,  20.24509
 101.83340,  16.57327
 101.85344,  17.15844
 101.87348,  15.97422
 101.89352,  16.67871
 101.91357,  16.01705
 101.93360,  15.50427
 101.95365,  18.21001
 101.97369,  18.01399
 101.99373,  19.28892
 102.01377,  19.30828
 102.03381,  19.09043
 102.05385,  17.39879
 102.07389,  18.36980
 102.09393,  18.04820
 102.11397,  17.95921
 102.13401,  16.91759
 102.15405,  15.87399
 102.17409,  17.81474
 102.19413,  17.10897
 102.21417,  16.27561
 102.23421,  16.16157
 102.25426,  16.62603
 102.27430,  15.98224
 102.29434,  17.57903
 102.31438,  17.74439
 102.33442,  17.40524
 102.35446,  18.70403
 102.37450,  19.37883
 102.39454,  16.01582
 102.41458,  17.25975
 102.43462,  17.07916
 102.45467,  19.93621
 102.47471,  16.07643
 102.49475,  14.43322
 102.51479,  18.57202
 102.53483,  16.42426
 102.55487,  17.51356
 102.57491,  16.12693
 102.59495,  15.55863
 102.61499,  17.83941
 102.63504,  17.13787
 102.65508,  14.12732
 102.67512,  16.45403
 102.69516,  18.64713
 102.71520,  20.20304
 102.73524,  18.81642
 102.75528,  17.57974
 102.77533,  15.16239
 102.79537,  14.39555
 102.81541,  16.82902
 102.83545,  16.31692
 102.85549,  18.62860
 102.87553,  17.33271
 102.89557,  18.36209
 102.91561,  15.47201
 102.93566,  15.66630
 102.95570,  17.07254
 102.97574,  18.01386
 102.99578,  16.19047
 103.01582,  17.40133
 103.03586,  20.07032
 103.05590,  17.38294
 103.07595,  16.21847
 103.09599,  17.01676
 103.11603,  14.83532
 103.13607,  20.33202
 103.15611,  16.96497
 103.17615,  17.29978
 103.19620,  18.68671
 103.21624,  16.87746
 103.23628,  17.62824
 103.25632,  16.41638
 103.27636,  17.49651
 103.29641,  19.56230
 103.31645,  18.62102
 103.33649,  17.06907
 103.35653,  16.70919
 103.37657,  16.36256
 103.39661,  16.55291
 103.41665,  17.10447
 103.43670,  17.76162
 103.45674,  17.62466
 103.47678,  15.25687
 103.49682,  19.63368
 103.51686,  21.13582
 103.53691,  18.84561
 103.55695,  17.83018
 103.57699,  15.16587
 103.59703,  17.54671
 103.61708,  17.42303
 103.63712,  17.60150
 103.65716,  20.04910
 103.67720,  14.66980
 103.69724,  14.84250
 103.71729,  16.99912
 103.73733,  16.76668
 103.75737,  16.17792
 103.77741,  15.26860
 103.79745,  17.86587
 103.81750,  19.47480
 103.83754,  18.09416
 103.85758,  14.68852
 103.87762,  17.45249
 103.89767,  16.43926
 103.91771,  16.06269
 103.93775,  16.93835
 103.95779,  18.33335
 103.97784,  16.06060
 103.99788,  16.85066
 104.01792,  16.73712
 104.03796,  18.16442
 104.05801,  18.96541
 104.07805,  17.56420
 104.09809,  16.83028
 104.11813,  18.73638
 104.13818,  19.83409
 104.15822,  17.81260
 104.17826,  15.99148
 104.19830,  19.01570
 104.21835,  16.58194
 104.23839,  17.31305
 104.25843,  16.21805
 104.27847,  19.60175
 104.29852,  17.91161
 104.31856,  17.65659
 104.33860,  16.96939
 104.35865,  17.31583
 104.37869,  17.42802
 104.39873,  18.27811
 104.41878,  16.13851
 104.43882,  17.08410
 104.45886,  16.41972
 104.47890,  17.79858
 104.49895,  19.65560
 104.51899,  17.99242
 104.53903,  18.68812
 104.55907,  14.93673
 104.57912,  17.89032
 104.59916,  15.37818
 104.61920,  16.79686
 104.63925,  17.62373
 104.65929,  17.11237
 104.67933,  18.63657
 104.69938,  18.79494
 104.71942,  18.60700
 104.73946,  16.96102
 104.75951,  18.14282
 104.77955,  17.38790
 104.79959,  18.61308
 104.81964,  18.05774
 104.83968,  16.34135
 104.85972,  17.86182
 104.87976,  16.50564
 104.89981,  17.24717
 104.91985,  19.32148
 104.93990,  18.93170
 104.95994,  18.62120
 104.97998,  15.63246
 105.00002,  17.23192
 105.02007,  18.26355
 105.04011,  16.94581
 105.06016,  20.26698
 105.08020,  15.81699
 105.10024,  16.22640
 105.12029,  15.87403
 105.14033,  17.72366
 105.16037,  19.34511
 105.18042,  19.18722
 105.20046,  19.36336
 105.22050,  16.65972
 105.24055,  15.86313
 105.26059,  17.40448
 105.28063,  16.43565
 105.30068,  14.64728
 105.32072,  18.91604
 105.34076,  17.22629
 105.36081,  16.20057
 105.38085,  14.51407
 105.40090,  17.02003
 105.42094,  17.23980
 105.44098,  17.07274
 105.46103,  17.55764
 105.48107,  18.97467
 105.50112,  17.45068
 105.52116,  16.81133
 105.54120,  16.37881
 105.56125,  19.15324
 105.58129,  16.40095
 105.60134,  17.57167
 105.62138,  16.02505
 105.64142,  16.18846
 105.66147,  16.20028
 105.68151,  19.91937
 105.70156,  17.07303
 105.72160,  18.96319
 105.74165,  18.84522
 105.76169,  18.14845
 105.78173,  17.01676
 105.80178,  16.00762
 105.82182,  19.05334
 105.84187,  15.39722
 105.86191,  18.26663
 105.88195,  15.78958
 105.90200,  18.95033
 105.92204,  20.03418
 105.94209,  19.21216
 105.96213,  16.66286
 105.98218,  17.37567
 106.00222,  17.92148
 106.02226,  16.48950
 106.04231,  17.79542
 106.06235,  18.00239
 106.08240,  17.79559
 106.10244,  18.36177
 106.12249,  21.26334
 106.14253,  18.79564
 106.16258,  16.06072
 106.18262,  17.57577
 106.20267,  17.18774
 106.22271,  14.73267
 106.24275,  16.00220
 106.26280,  15.68791
 106.28284,  19.26281
 106.30289,  14.95209
 106.32293,  17.47922
 106.34298,  17.37785
 106.36302,  18.11491
 106.38307,  16.39715
 106.40311,  19.91319
 106.42316,  17.18619
 106.44320,  16.47218
 106.46325,  19.71660
 106.48329,  17.12870
 106.50334,  17.71102
 106.52338,  16.76462
 106.54343,  17.22269
 106.56347,  18.40832
 106.58352,  16.08111
 106.60356,  16.91524
 106.62361,  18.00227
 106.64365,  17.02015
 106.66370,  19.64299
 106.68374,  16.30456
 106.70379,  15.21210
 106.72383,  14.96604
 106.74388,  17.58790
 106.76392,  18.30763
 106.78397,  16.94522
 106.80401,  19.47350
 106.82406,  17.23628
 106.84410,  17.40764
 106.86415,  17.40793
 106.88420,  16.75045
 106.90424,  18.33003
 106.92429,  17.02507
 106.94433,  16.50394
 106.96438,  16.18319
 106.98442,  17.51414
 107.00447,  19.56198
 107.02451,  17.90341
 107.04456,  18.71442
 107.06460,  16.30616
 107.08465,  18.62826
 107.10469,  18.56192
 107.12474,  16.67032
 107.14479,  18.38202
 107.16483,  17.56519
 107.18488,  17.47316
 107.20492,  17.93315
 107.22497,  17.79675
 107.24501,  16.66535
 107.26506,  14.33803
 107.28511,  15.59443
 107.30515,  17.54784
 107.32520,  16.89902
 107.34524,  17.93106
 107.36529,  19.94370
 107.38534,  18.82437
 107.40538,  18.14205
 107.42543,  16.18971
 107.44547,  14.93359
 107.46552,  16.05543
 107.48556,  15.97694
 107.50561,  16.71273
 107.52566,  15.67194
 107.54570,  18.24769
 107.56575,  17.88977
 107.58580,  19.87272
 107.60584,  18.02413
 107.62589,  16.51219
 107.64593,  18.58263
 107.66598,  19.38112
 107.68603,  17.01422
 107.70607,  15.67604
 107.72612,  18.01933
 107.74616,  19.31776
 107.76621,  17.07806
 107.78626,  15.40385
 107.80630,  16.09674
 107.82635,  16.00237
 107.84640,  17.61228
 107.86644,  17.84925
 107.88649,  17.43765
 107.90654,  19.92197
 107.92658,  19.52080
 107.94663,  13.34851
 107.96667,  15.98237
 107.98672,  15.52904
 108.00677,  17.05062
 108.02681,  17.17444
 108.04686,  17.49399
 108.06691,  18.16507
 108.08696,  15.67522
 108.10700,  16.60417
 108.12705,  17.15210
 108.14709,  16.77046
 108.16714,  19.56084
 108.18719,  20.72988
 108.20723,  16.99062
 108.22728,  18.08443
 108.24733,  16.43269
 108.26737,  16.78384
 108.28742,  14.03323
 108.30747,  15.63039
 108.32752,  14.18810
 108.34756,  15.53860
 108.36761,  16.57403
 108.38766,  16.92513
 108.40770,  18.08134
 108.42775,  16.71213
 108.44780,  17.37029
 108.46785,  17.41808
 108.48789,  16.11661
 108.50794,  18.13144
 108.52799,  16.92983
 108.54803,  16.50693
 108.56808,  16.75978
 108.58813,  17.75843
 108.60817,  15.37957
 108.62822,  14.25111
 108.64827,  17.16744
 108.66832,  17.91275
 108.68837,  17.79033
 108.70841,  17.96827
 108.72846,  16.61984
 108.74851,  15.94956
 108.76855,  16.98891
 108.78860,  17.52793
 108.80865,  17.63437
 108.82870,  15.69557
 108.84874,  16.67301
 108.86879,  15.58937
 108.88884,  14.78500
 108.90889,  15.38073
 108.92893,  18.23178
 108.94898,  18.45665
 108.96903,  15.47152
 108.98908,  15.43218
 109.00912,  17.29634
 109.02917,  16.37234
 109.04922,  16.67120
 109.06927,  15.52602
 109.08932,  17.52643
 109.10936,  19.22615
 109.12941,  15.70486
 109.14946,  17.16770
 109.16951,  18.10231
 109.18955,  19.62841
 109.20960,  16.60844
 109.22965,  16.32302
 109.24970,  18.55810
 109.26975,  19.65857
 109.28980,  17.40948
 109.30984,  17.46684
 109.32989,  17.86916
 109.34994,  18.51407
 109.36999,  17.91848
 109.39004,  16.34342
 109.41008,  17.41589
 109.43013,  18.25182
 109.45018,  16.67808
 109.47023,  21.00262
 109.49028,  17.70102
 109.51033,  16.02792
 109.53037,  17.60503
 109.55042,  18.96287
 109.57047,  18.29695
 109.59052,  18.01616
 109.61057,  15.74727
 109.63062,  16.74094
 109.65066,  16.36264
 109.67071,  16.37887
 109.69076,  16.25288
 109.71081,  19.10453
 109.73086,  20.20171
 109.75091,  16.93199
 109.77095,  18.14958
 109.79100,  17.77004
 109.81105,  17.84122
 109.83110,  17.60270
 109.85115,  17.67507
 109.87120,  16.99544
 109.89125,  19.58910
 109.91130,  18.19830
 109.93135,  17.11388
 109.95139,  16.75536
 109.97144,  17.47852
 109.99149,  17.41904
 110.01154,  17.46999
 110.03159,  14.93924
 110.05164,  14.65474
 110.07169,  17.61804
 110.09174,  18.20149
 110.11178,  18.33194
 110.13183,  17.29299
 110.15188,  19.11221
 110.17193,  16.19533
 110.19198,  17.96089
 110.21203,  15.25540
 110.23208,  16.03001
 110.25213,  19.52810
 110.27218,  16.62519
 110.29223,  14.91217
 110.31228,  20.35093
 110.33233,  17.75627
 110.35237,  17.36476
 110.37242,  17.66466
 110.39247,  16.84771
 110.41252,  19.29228
 110.43257,  17.53802
 110.45262,  16.32859
 110.47267,  16.03070
 110.49272,  18.34073
 110.51277,  19.48562
 110.53282,  13.42148
 110.55287,  19.51214
 110.57292,  17.67125
 110.59297,  16.83843
 110.61302,  16.80097
 110.63307,  17.68433
 110.65312,  19.31874
 110.67317,  18.03847
 110.69322,  17.43011
 110.71327,  17.36744
 110.73332,  18.85749
 110.75337,  17.12354
 110.77342,  17.59955
 110.79347,  17.93734
 110.81352,  17.31533
 110.83357,  15.22453
 110.85362,  16.30622
 110.87367,  18.72578
 110.89372,  16.17402
 110.91377,  15.72374
 110.93382,  15.94272
 110.95387,  14.51689
 110.97392,  14.45066
 110.99397,  17.40117
 111.01402,  16.54220
 111.03407,  14.91087
 111.05412,  19.88563
 111.07417,  17.43850
 111.09422,  13.79850
 111.11427,  16.42967
 111.13432,  18.17195
 111.15437,  16.70485
 111.17442,  17.57687
 111.19447,  15.48765
 111.21452,  19.03712
 111.23457,  14.68970
 111.25462,  15.80388
 111.27467,  16.86164
 111.29472,  17.96143
 111.31477,  16.13728
 111.33482,  18.32505
 111.35487,  15.95352
 111.37492,  13.47331
 111.39497,  15.41423
 111.41502,  19.77237
 111.43507,  19.12218
 111.45513,  16.86448
 111.47518,  17.20309
 111.49523,  15.75996
 111.51528,  15.94840
 111.53533,  15.76830
 111.55538,  18.46742
 111.57543,  18.95844
 111.59548,  17.85745
 111.61553,  18.21617
 111.63558,  16.88249
 111.65563,  17.73170
 111.67569,  18.11208
 111.69574,  17.43214
 111.71579,  17.32218
 111.73584,  17.31522
 111.75589,  15.87080
 111.77594,  18.55938
 111.79599,  16.02034
 111.81604,  17.10574
 111.83609,  18.11256
 111.85615,  16.30273
 111.87620,  17.26661
 111.89625,  17.86325
 111.91630,  16.46827
 111.93635,  18.75047
 111.95640,  18.08882
 111.97645,  20.00043
 111.99650,  16.77867
 112.01656,  19.55690
 112.03661,  17.57634
 112.05666,  16.43649
 112.07671,  17.89905
 112.09676,  17.64006
 112.11681,  15.08687
 112.13687,  17.45641
 112.15692,  16.88942
 112.17697,  16.09661
 112.19702,  15.01083
 112.21707,  16.23609
 112.23712,  16.39082
 112.25718,  18.38957
 112.27723,  15.16984
 112.29728,  19.26989
 112.31733,  18.65702
 112.33738,  19.25782
 112.35743,  15.02977
 112.37749,  17.18181
 112.39754,  17.66629
 112.41759,  19.65039
 112.43764,  18.69213
 112.45769,  18.40454
 112.47775,  17.11212
 112.49780,  18.78790
 112.51785,  17.00721
 112.53790,  15.53841
 112.55796,  14.93175
 112.57801,  18.44012
 112.59806,  18.70473
 112.61811,  18.70956
 112.63816,  18.71919
 112.65822,  16.50938
 112.67827,  14.66847
 112.69832,  16.69169
 112.71837,  17.38975
 112.73843,  17.07377
 112.75848,  13.98746
 112.77853,  17.67009
 112.79858,  17.35919
 112.81864,  19.28936
 112.83869,  16.94783
 112.85874,  19.05945
 112.87879,  18.61275
 112.89885,  16.98096
 112.91890,  16.23552
 112.93895,  17.95163
 112.95900,  15.86544
 112.97906,  18.78956
 112.99911,  17.75040
 113.01916,  16.69349
 113.03922,  14.52227
 113.05927,  14.35870
 113.07932,  17.87898
 113.09938,  18.87112
 113.11943,  14.85438
 113.13948,  17.03744
 113.15953,  15.75177
 113.17959,  16.91858
 113.19964,  14.65628
 113.21969,  17.08753
 113.23975,  18.85935
 113.25980,  17.89669
 113.27985,  17.41149
 113.29991,  17.42122
 113.31996,  16.23846
 113.34001,  15.88536
 113.36006,  17.27278
 113.38012,  16.92525
 113.40017,  18.90904
 113.42022,  16.54612
 113.44028,  16.87799
 113.46033,  19.79533
 113.48039,  16.06053
 113.50044,  18.60653
 113.52049,  16.54953
 113.54055,  14.87490
 113.56060,  17.91320
 113.58065,  18.70164
 113.60071,  17.34356
 113.62076,  17.86810
 113.64081,  14.94666
 113.66087,  14.65109
 113.68092,  15.66703
 113.70098,  16.58549
 113.72103,  14.44689
 113.74108,  16.43571
 113.76114,  17.54566
 113.78119,  18.16989
 113.80124,  17.40671
 113.82130,  18.32566
 113.84135,  18.62741
 113.86141,  18.39288
 113.88146,  17.14370
 113.90151,  16.22024
 113.92157,  17.41376
 113.94162,  14.78606
 113.96168,  16.73988
 113.98173,  16.60672
 114.00179,  17.76509
 114.02184,  16.82493
 114.04189,  18.61474
 114.06195,  18.21023
 114.08200,  18.11120
 114.10206,  17.88081
 114.12211,  15.83994
 114.14217,  17.18802
 114.16222,  18.49256
 114.18227,  17.32549
 114.20233,  17.79616
 114.22238,  18.65867
 114.24244,  17.14062
 114.26249,  16.04539
 114.28255,  17.52426
 114.30260,  19.56738
 114.32266,  18.87691
 114.34271,  16.93809
 114.36277,  16.97838
 114.38282,  14.73394
 114.40287,  20.47939
 114.42293,  17.59893
 114.44298,  17.66872
 114.46304,  18.79960
 114.48310,  18.24159
 114.50315,  18.18139
 114.52320,  16.16510
 114.54326,  15.67752
 114.56332,  20.10375
 114.58337,  19.09190
 114.60342,  18.48705
 114.62348,  21.07120
 114.64354,  16.69446
 114.66359,  19.21463
 114.68365,  19.89464
 114.70370,  15.93148
 114.72376,  21.58036
 114.74381,  18.12182
 114.76387,  19.30125
 114.78392,  17.88285
 114.80398,  19.67970
 114.82403,  18.02256
 114.84409,  18.34292
 114.86414,  18.14624
 114.88420,  18.37913
 114.90426,  17.19371
 114.92431,  16.61969
 114.94437,  17.11185
 114.96442,  16.60790
 114.98448,  17.18675
 115.00453,  17.68831
 115.02459,  22.33871
 115.04465,  18.39840
 115.06470,  19.01093
 115.08476,  18.91829
 115.10481,  19.22832
 115.12487,  18.15178
 115.14492,  16.27688
 115.16498,  18.88357
 115.18504,  16.20185
 115.20509,  16.29266
 115.22515,  16.53160
 115.24521,  17.64412
 115.26526,  18.82626
 115.28532,  16.13635
 115.30537,  19.17899
 115.32543,  17.14089
 115.34549,  21.93470
 115.36554,  20.02558
 115.38560,  18.02471
 115.40565,  20.73259
 115.42571,  20.20872
 115.44577,  18.44917
 115.46582,  16.58636
 115.48588,  17.72063
 115.50594,  19.80170
 115.52599,  19.93249
 115.54605,  17.95428
 115.56611,  19.59763
 115.58616,  20.79194
 115.60622,  23.61932
 115.62628,  22.11248
 115.64633,  22.53890
 115.66639,  21.00228
 115.68645,  18.41322
 115.70650,  19.65211
 115.72656,  19.11534
 115.74662,  21.90817
 115.76667,  23.27836
 115.78673,  24.04769
 115.80679,  23.14766
 115.82684,  23.16006
 115.84690,  29.03243
 115.86696,  26.55342
 115.88702,  28.85290
 115.90707,  30.14648
 115.92713,  34.72606
 115.94719,  34.46650
 115.96724,  39.76361
 115.98730,  41.15091
 116.00736,  44.82250
 116.02741,  49.69905
 116.04747,  52.64550
 116.06753,  59.67238
 116.08759,  55.30295
 116.10764,  65.31201
 116.12770,  66.13816
 116.14776,  66.08886
 116.16782,  62.20031
 116.18788,  60.19465
 116.20793,  56.65210
 116.22799,  54.81591
 116.24805,  53.46774
 116.26810,  54.87248
 116.28816,  55.97111
 116.30822,  50.11597
 116.32828,  45.92631
 116.34834,  42.73945
 116.36839,  43.38603
 116.38845,  42.86986
 116.40851,  41.71117
 116.42857,  39.31972
 116.44863,  43.51357
 116.46868,  37.65441
 116.48874,  39.61966
 116.50880,  39.05556
 116.52886,  44.31734
 116.54892,  43.02996
 116.56898,  43.05828
 116.58903,  43.70389
 116.60909,  40.86284
 116.62915,  42.61967
 116.64921,  38.94456
 116.66927,  37.14952
 116.68932,  39.78647
 116.70938,  40.03354
 116.72944,  35.91818
 116.74950,  32.19482
 116.76956,  31.45646
 116.78962,  32.67740
 116.80968,  32.07548
 116.82973,  32.38353
 116.84979,  25.67173
 116.86985,  27.82947
 116.88991,  23.67658
 116.90997,  22.79716
 116.93003,  22.15411
 116.95009,  21.16853
 116.97015,  22.89512
 116.99020,  20.64931
 117.01026,  22.81753
 117.03032,  22.26969
 117.05038,  21.63120
 117.07044,  20.91571
 117.09050,  21.18498
 117.11056,  17.60192
 117.13062,  18.71351
 117.15068,  19.44657
 117.17074,  20.84775
 117.19079,  20.45166
 117.21085,  19.85873
 117.23091,  17.21294
 117.25097,  18.95398
 117.27103,  18.85868
 117.29109,  18.59277
 117.31115,  19.21403
 117.33121,  17.93876
 117.35127,  21.33408
 117.37133,  24.69205
 117.39139,  23.06632
 117.41145,  20.74110
 117.43151,  18.64701
 117.45157,  20.35462
 117.47163,  19.74824
 117.49169,  18.95421
 117.51175,  19.76853
 117.53181,  23.28132
 117.55187,  18.94766
 117.57193,  21.99921
 117.59198,  23.10619
 117.61205,  22.74129
 117.63211,  20.31981
 117.65216,  24.44971
 117.67223,  22.50718
 117.69229,  25.29746
 117.71235,  27.08011
 117.73241,  30.40980
 117.75247,  26.45578
 117.77253,  25.95504
 117.79259,  23.64944
 117.81265,  23.21540
 117.83271,  29.13735
 117.85277,  27.24156
 117.87283,  28.04329
 117.89289,  27.08356
 117.91295,  26.82979
 117.93301,  31.32062
 117.95307,  29.81057
 117.97313,  25.01528
 117.99319,  25.65192
 118.01325,  22.57229
 118.03331,  25.57843
 118.05337,  21.80796
 118.07343,  21.80267
 118.09349,  19.67702
 118.11356,  22.02493
 118.13362,  24.65291
 118.15368,  22.02899
 118.17374,  25.16936
 118.19380,  24.34382
 118.21386,  25.50193
 118.23392,  23.65121
 118.25398,  21.76536
 118.27404,  21.43893
 118.29410,  22.58361
 118.31417,  24.55983
 118.33423,  20.00834
 118.35429,  22.24502
 118.37435,  24.40140
 118.39441,  25.44718
 118.41447,  24.15114
 118.43453,  22.77611
 118.45459,  21.65390
 118.47465,  25.51189
 118.49472,  22.61166
 118.51478,  18.85285
 118.53484,  18.24741
 118.55490,  20.30485
 118.57496,  22.13814
 118.59503,  22.60188
 118.61509,  21.39971
 118.63515,  20.22327
 118.65521,  20.32636
 118.67527,  18.21031
 118.69533,  20.31846
 118.71540,  18.48947
 118.73546,  19.48130
 118.75552,  17.40095
 118.77558,  16.30572
 118.79564,  16.10832
 118.81571,  20.33701
 118.83577,  20.28458
 118.85583,  21.58604
 118.87589,  19.73153
 118.89595,  16.97878
 118.91602,  15.91495
 118.93608,  17.14738
 118.95614,  17.73547
 118.97620,  19.73950
 118.99627,  15.41850
 119.01633,  14.18952
 119.03639,  15.03671
 119.05645,  16.55576
 119.07651,  18.35208
 119.09658,  18.72741
 119.11664,  16.99917
 119.13670,  20.34458
 119.15677,  18.39126
 119.17683,  17.20200
 119.19689,  22.18480
 119.21695,  17.48770
 119.23702,  16.09807
 119.25708,  19.61179
