# 2Theta,Counts
  36.49038,  37.27235
  36.51040,  53.44827
  36.53042,  56.99107
  36.55043,  57.06637
  36.57045,  49.00687
  36.59047,  52.24211
  36.61049,  58.68993
  36.63050,  50.34132
  36.65052,  50.37024
  36.67054,  52.00612
  36.69056,  51.43763
  36.71058,  49.59792
  36.73059,  49.90630
  36.75061,  46.35498
  36.77063,  52.44172
  36.79065,  50.67725
  36.81067,  50.27653
  36.83068,  50.54415
  36.85070,  48.92952
  36.87072,  50.25668
  36.89074,  56.69690
  36.91076,  49.09167
  36.93077,  50.22208
  36.95079,  47.30571
  36.97081,  47.92308
  36.99083,  49.43413
  37.01084,  44.10011
  37.03086,  46.07645
  37.05088,  43.89682
  37.07090,  53.11277
  37.09092,  51.78292
  37.11093,  54.55869
  37.13095,  53.98844
  37.15097,  51.55127
  37.17099,  47.78779
  37.19101,  53.16069
  37.21102,  53.38885
  37.23104,  50.67993
  37.25106,  49.18637
  37.27108,  45.87230
  37.29110,  51.81242
  37.31111,  52.09792
  37.33113,  50.52302
  37.35115,  50.68465
  37.37117,  48.25732
  37.39118,  49.76209
  37.41120,  48.00998
  37.43122,  45.69467
  37.45124,  50.04719
  37.47126,  51.04059
  37.49127,  48.96967
  37.51129,  47.87528
  37.53131,  49.26852
  37.55133,  50.96769
  37.57135,  51.58295
  37.59136,  47.64246
  37.61138,  50.10603
  37.63140,  50.81503
  37.65142,  51.44397
  37.67144,  53.28684
  37.69145,  53.72172
  37.71147,  49.28590
  37.73149,  51.75382
  37.75151,  52.61847
  37.77153,  49.87338
  37.79154,  44.13182
  37.81156,  49.05288
  37.83158,  47.05744
  37.85160,  45.60432
  37.87162,  51.50884
  37.89163,  46.55339
  37.91165,  46.83482
  37.93167,  51.60997
  37.95169,  53.98770
  37.97171,  52.99956
  37.99172,  46.19052
  38.01174,  43.49185
  38.03176,  52.18285
  38.05178,  49.30116
  38.07180,  48.77215
  38.09181,  45.22094
  38.11183,  48.19208
  38.13185,  55.72303
  38.15187,  47.86906
  38.17189,  50.25339
  38.19190,  47.60227
  38.21192,  52.37608
  38.23194,  51.30454
  38.25196,  45.49677
  38.27198,  51.06684
  38.29200,  44.52707
  38.31201,  49.75832
  38.33203,  52.18080
  38.35205,  51.82636
  38.37207,  46.94852
  38.39208,  46.54949
  38.41210,  44.15315
  38.43212,  48.90285
  38.45214,  50.41573
  38.47216,  54.02249
  38.49217,  53.90462
  38.51219,  50.30506
  38.53221,  46.71650
  38.55223,  48.65992
  38.57225,  45.40199
  38.59227,  51.85541
  38.61228,  55.77518
  38.63230,  47.59949
  38.65232,  46.31573
  38.67234,  49.16488
  38.69236,  46.85397
  38.71237,  48.30376
  38.73239,  47.93389
  38.75241,  45.75786
  38.77243,  50.63832
  38.79245,  56.09463
  38.81246,  52.41282
  38.83248,  48.82523
  38.85250,  49.93581
  38.87252,  53.86228
  38.89254,  52.95142
  38.91256,  46.83317
  38.93257,  46.88506
  38.95259,  46.26560
  38.97261,  49.87841
  38.99263,  52.33958
  39.01265,  49.06554
  39.03266,  45.24474
  39.05268,  45.75118
  39.07270,  49.04846
  39.09272,  45.06188
  39.11274,  44.52898
  39.13275,  50.17097
  39.15277,  48.96383
  39.17279,  50.06271
  39.19281,  49.05385
  39.21283,  45.68899
  39.23284,  45.68113
  39.25286,  49.46811
  39.27288,  47.38837
  39.29290,  47.55443
  39.31292,  47.83418
  39.33294,  46.42809
  39.35295,  51.42173
  39.37297,  45.33716
  39.39299,  45.25395
  39.41301,  43.55041
  39.43303,  45.97488
  39.45304,  48.52264
  39.47306,  48.20726
  39.49308,  46.76582
  39.51310,  46.64547
  39.53312,  48.61745
  39.55314,  50.32913
  39.57315,  45.96377
  39.59317,  46.97751
  39.61319,  48.19628
  39.63321,  52.63634
  39.65323,  51.99720
  39.67324,  45.26292
  39.69326,  51.07879
  39.71328,  42.16779
  39.73330,  46.42301
  39.75332,  46.94569
  39.77334,  41.48004
  39.79335,  44.75952
  39.81337,  45.47581
  39.83339,  44.78069
  39.85341,  48.02621
  39.87343,  45.02578
  39.89344,  45.21731
  39.91346,  49.26845
  39.93348,  46.72542
  39.95350,  40.92603
  39.97352,  46.89517
  39.99354,  41.64411
  40.01355,  41.94155
  40.03357,  47.53485
  40.05359,  46.55324
  40.07361,  45.01800
  40.09363,  41.48442
  40.11365,  41.84940
  40.13366,  44.96786
  40.15368,  46.21380
  40.17370,  44.36931
  40.19372,  46.06169
  40.21374,  47.19937
  40.23375,  48.81233
  40.25377,  42.87395
  40.27379,  43.47019
  40.29381,  47.39042
  40.31383,  44.29478
  40.33385,  48.39003
  40.35386,  45.39407
  40.37388,  44.32937
  40.39390,  47.86144
  40.41392,  47.03243
  40.43394,  44.71601
  40.45396,  46.54156
  40.47397,  51.96121
  40.49399,  49.71443
  40.51401,  48.17133
  40.53403,  46.38578
  40.55405,  42.10722
  40.57407,  45.55616
  40.59408,  47.08505
  40.61410,  44.50285
  40.63412,  43.91789
  40.65414,  45.64119
  40.67416,  39.72461
  40.69418,  42.90034
  40.71419,  41.24263
  40.73421,  41.97830
  40.75423,  43.34877
  40.77425,  41.84867
  40.79427,  48.59941
  40.81429,  43.31439
  40.83430,  44.17780
  40.85432,  47.01023
  40.87434,  43.25459
  40.89436,  40.67416
  40.91438,  43.06683
  40.93440,  48.30047
  40.95441,  42.82882
  40.97443,  48.23687
  40.99445,  48.17704
  41.01447,  49.58461
  41.03449,  47.51349
  41.05451,  47.89328
  41.07452,  45.93655
  41.09454,  50.41651
  41.11456,  41.98245
  41.13458,  43.07779
  41.15460,  52.22669
  41.17461,  45.19246
  41.19463,  42.90599
  41.21465,  49.37526
  41.23467,  45.81177
  41.25469,  49.25641
  41.27471,  45.67103
  41.29472,  44.26355
  41.31474,  43.38929
  41.33476,  41.60448
  41.35478,  41.73030
  41.37480,  44.81403
  41.39482,  47.97342
  41.41484,  50.62847
  41.43485,  43.26074
  41.45487,  45.41604
  41.47489,  44.48090
  41.49491,  45.35486
  41.51493,  45.62445
  41.53495,  48.34958
  41.55497,  46.35713
  41.57498,  47.22874
  41.59500,  45.28108
  41.61502,  49.64760
  41.63504,  53.42748
  41.65506,  46.43920
  41.67508,  44.17716
  41.69509,  39.56728
  41.71511,  44.41577
  41.73513,  43.19758
  41.75515,  44.49032
  41.77517,  45.35144
  41.79519,  48.39149
  41.81520,  42.13838
  41.83522,  37.29388
  41.85524,  43.09348
  41.87526,  43.18361
  41.89528,  45.47710
  41.91530,  51.09649
  41.93532,  45.60150
  41.95533,  50.21236
  41.97535,  41.97964
  41.99537,  43.57351
  42.01539,  40.40818
  42.03541,  42.25965
  42.05543,  42.59719
  42.07545,  45.68696
  42.09546,  45.40362
  42.11548,  45.79835
  42.13550,  46.03619
  42.15552,  47.68929
  42.17554,  45.09759
  42.19556,  41.44605
  42.21557,  49.34067
  42.23559,  45.12691
  42.25561,  44.47023
  42.27563,  40.88051
  42.29565,  45.82308
  42.31567,  46.18194
  42.33569,  48.85513
  42.35570,  45.23542
  42.37572,  44.23991
  42.39574,  45.47680
  42.41576,  47.92332
  42.43578,  50.41786
  42.45580,  42.01209
  42.47581,  46.58392
  42.49583,  44.58384
  42.51585,  42.91348
  42.53587,  42.20930
  42.55589,  47.27262
  42.57591,  40.58751
  42.59593,  44.70218
  42.61594,  48.36401
  42.63596,  51.01360
  42.65598,  51.75103
  42.67600,  47.10879
  42.69602,  46.87541
  42.71604,  52.05111
  42.73605,  47.17836
  42.75607,  46.75139
  42.77609,  45.58478
  42.79611,  51.29698
  42.81613,  47.50286
  42.83615,  43.29491
  42.85617,  43.69366
  42.87618,  51.75094
  42.89620,  49.77092
  42.91622,  46.57818
  42.93624,  48.19944
  42.95626,  47.95963
  42.97628,  49.07908
  42.99630,  47.89638
  43.01632,  48.83678
  43.03633,  48.73247
  43.05635,  48.46070
  43.07637,  56.92877
  43.09639,  53.78988
  43.11641,  48.25560
  43.13643,  53.57451
  43.15645,  54.03704
  43.17646,  49.92833
  43.19648,  50.49434
  43.21650,  61.76606
  43.23652,  58.92386
  43.25654,  57.01930
  43.27656,  63.74286
  43.29658,  61.25853
  43.31660,  70.98600
  43.33661,  77.13654
  43.35663,  83.12377
  43.37665,  85.15132
  43.39667, 104.12446
  43.41669, 130.01313
  43.43671, 183.60169
  43.45673, 238.70015
  43.47674, 324.49784
  43.49676, 425.18754
  43.51678, 537.76425
  43.53680, 571.56686
  43.55682, 602.96296
  43.57684, 633.49407
  43.59686, 633.56733
  43.61687, 593.67916
  43.63689, 579.42048
  43.65691, 536.47515
  43.67693, 464.08265
  43.69695, 412.30513
  43.71697, 330.26774
  43.73699, 260.90394
  43.75701, 213.89259
  43.77702, 181.71206
  43.79704, 136.04151
  43.81706, 124.94888
  43.83708, 101.48944
  43.85710,  82.67024
  43.87712,  83.45795
  43.89714,  65.48091
  43.91715,  60.23924
  43.93717,  61.11444
  43.95719,  63.09595
  43.97721,  60.86494
  43.99723,  57.38218
  44.01725,  55.21326
  44.03727,  52.80455
  44.05729,  52.00076
  44.07731,  51.95166
  44.09732,  58.14770
  44.11734,  55.15000
  44.13736,  55.55244
  44.15738,  55.79470
  44.17740,  50.97419
  44.19742,  55.74029
  44.21744,  50.87089
  44.23745,  51.51505
  44.25747,  54.58916
  44.27749,  61.84694
  44.29751,  60.81461
  44.31753,  68.82993
  44.33755,  76.11198
  44.35757,  85.26346
  44.37759,  88.41964
  44.39761,  93.46197
  44.41762, 109.98853
  44.43764, 130.15061
  44.45766, 154.94739
  44.47768, 188.92281
  44.49770, 250.17230
  44.51772, 313.55247
  44.53774, 422.82893
  44.55776, 497.74041
  44.57777, 587.13110
  44.59779, 625.04424
  44.61781, 611.32949
  44.63783, 611.43110
  44.65785, 576.60267
  44.67787, 545.12208
  44.69789, 485.22461
  44.71791, 447.02304
  44.73793, 382.56055
  44.75794, 311.39488
  44.77796, 266.05253
  44.79798, 216.61159
  44.81800, 181.15140
  44.83802, 140.62126
  44.85804, 111.84934
  44.87806,  88.78679
  44.89807,  78.18111
  44.91809,  69.42791
  44.93811,  66.04796
  44.95813,  63.54825
  44.97815,  59.63914
  44.99817,  54.60142
  45.01819,  53.07100
  45.03821,  51.86992
  45.05823,  49.22904
  45.07824,  49.13599
  45.09826,  56.05398
  45.11828,  48.56084
  45.13830,  43.79002
  45.15832,  46.30953
  45.17834,  45.03523
  45.19836,  43.63083
  45.21838,  44.99762
  45.23840,  41.45622
  45.25841,  43.08716
  45.27843,  41.35248
  45.29845,  41.65064
  45.31847,  39.62048
  45.33849,  42.73858
  45.35851,  36.91488
  45.37853,  38.83263
  45.39855,  42.26221
  45.41857,  42.21980
  45.43859,  42.11693
  45.45860,  40.41561
  45.47862,  41.54408
  45.49864,  44.18151
  45.51866,  41.24486
  45.53868,  43.17463
  45.55870,  38.89114
  45.57872,  42.75496
  45.59874,  35.95251
  45.61876,  38.95416
  45.63877,  40.72421
  45.65879,  39.19390
  45.67881,  39.28348
  45.69883,  39.57560
  45.71885,  38.76024
  45.73887,  38.26704
  45.75889,  42.05693
  45.77891,  39.90290
  45.79893,  39.66032
  45.81895,  37.06965
  45.83896,  39.78222
  45.85898,  41.21901
  45.87900,  39.17175
  45.89902,  37.56239
  45.91904,  36.99295
  45.93906,  39.21162
  45.95908,  36.75450
  45.97910,  40.04180
  45.99912,  38.96072
  46.01914,  39.80570
  46.03915,  39.00031
  46.05917,  41.51922
  46.07919,  42.86666
  46.09921,  43.30722
  46.11923,  39.65541
  46.13925,  37.60814
  46.15927,  39.17926
  46.17929,  39.84074
  46.19931,  42.89355
  46.21933,  40.24623
  46.23934,  38.78191
  46.25936,  37.72531
  46.27938,  38.76772
  46.29940,  40.47911
  46.31942,  37.11212
  46.33944,  36.97541
  46.35946,  34.65987
  46.37948,  34.21399
  46.39950,  36.65955
  46.41952,  40.93545
  46.43953,  40.73873
  46.45955,  36.87384
  46.47957,  33.45265
  46.49959,  37.40943
  46.51961,  42.37627
  46.53963,  39.32114
  46.55965,  39.87008
  46.57967,  39.04469
  46.59969,  41.61484
  46.61971,  34.71402
  46.63973,  37.55041
  46.65974,  37.67704
  46.67976,  36.14642
  46.69978,  38.13900
  46.71980,  36.67808
  46.73982,  38.12114
  46.75984,  41.51594
  46.77986,  38.93186
  46.79988,  34.41166
  46.81990,  36.83515
  46.83992,  41.01010
  46.85994,  39.81706
  46.87995,  40.95043
  46.89997,  36.62398
  46.91999,  39.18290
  46.94001,  35.74166
  46.96003,  37.36483
  46.98005,  34.87262
  47.00007,  39.39169
  47.02009,  40.08830
  47.04011,  37.52851
  47.06013,  34.81276
  47.08015,  35.29932
  47.10016,  35.45938
  47.12018,  36.11151
  47.14020,  34.94535
  47.16022,  40.94389
  47.18024,  38.43414
  47.20026,  36.23134
  47.22028,  34.36111
  47.24030,  33.87706
  47.26032,  36.97527
  47.28034,  32.93616
  47.30036,  33.91460
  47.32038,  36.89442
  47.34040,  36.16283
  47.36041,  37.65680
  47.38043,  32.31923
  47.40045,  33.33887
  47.42047,  33.17025
  47.44049,  40.26278
  47.46051,  37.21105
  47.48053,  36.95722
  47.50055,  36.85307
  47.52057,  38.51503
  47.54059,  36.83969
  47.56061,  36.97165
  47.58063,  39.26441
  47.60065,  34.91353
  47.62066,  39.51343
  47.64068,  39.59356
  47.66070,  38.75817
  47.68072,  36.25187
  47.70074,  36.78264
  47.72076,  36.81632
  47.74078,  37.92033
  47.76080,  33.48049
  47.78082,  37.03770
  47.80084,  38.61650
  47.82086,  34.33234
  47.84088,  39.12761
  47.86089,  37.20515
  47.88092,  34.15105
  47.90093,  34.89058
  47.92095,  40.00695
  47.94097,  36.20148
  47.96099,  34.62993
  47.98101,  37.38918
  48.00103,  40.06994
  48.02105,  35.43462
  48.04107,  36.07659
  48.06109,  35.21873
  48.08111,  33.05989
  48.10113,  31.74658
  48.12115,  32.34255
  48.14117,  38.98879
  48.16118,  34.88895
  48.18120,  37.26115
  48.20122,  41.79978
  48.22124,  34.74852
  48.24126,  33.06486
  48.26128,  31.45385
  48.28130,  34.50425
  48.30132,  35.35471
  48.32134,  35.18318
  48.34136,  32.05809
  48.36138,  35.82469
  48.38140,  39.68602
  48.40142,  39.41883
  48.42144,  32.04409
  48.44146,  36.41531
  48.46147,  36.99257
  48.48149,  35.69159
  48.50151,  31.77742
  48.52153,  35.00705
  48.54155,  35.64160
  48.56157,  31.95909
  48.58159,  35.20739
  48.60161,  33.90970
  48.62163,  36.71975
  48.64165,  33.41410
  48.66167,  34.37991
  48.68169,  37.88463
  48.70171,  35.35526
  48.72173,  30.44553
  48.74175,  34.58045
  48.76176,  32.91729
  48.78178,  33.31285
  48.80180,  36.57245
  48.82182,  36.33510
  48.84184,  34.70783
  48.86186,  34.68867
  48.88188,  34.51272
  48.90190,  36.61113
  48.92192,  35.52103
  48.94194,  32.22560
  48.96196,  37.34081
  48.98198,  32.49588
  49.00200,  33.80218
  49.02202,  38.05193
  49.04204,  34.72181
  49.06206,  32.77255
  49.08208,  32.45791
  49.10210,  35.24055
  49.12212,  33.07706
  49.14213,  31.63506
  49.16215,  30.88090
  49.18217,  37.43285
  49.20219,  34.94555
  49.22221,  35.77710
  49.24223,  35.09432
  49.26225,  34.70901
  49.28227,  36.26454
  49.30229,  37.91492
  49.32231,  34.86566
  49.34233,  31.09071
  49.36235,  33.69315
  49.38237,  32.55166
  49.40239,  36.29747
  49.42241,  38.78491
  49.44243,  35.21885
  49.46245,  33.28505
  49.48247,  32.17199
  49.50249,  34.26558
  49.52250,  33.64679
  49.54252,  39.60666
  49.56254,  32.27940
  49.58256,  33.63207
  49.60258,  35.64889
  49.62260,  35.30504
  49.64262,  38.60171
  49.66264,  34.38100
  49.68266,  36.33416
  49.70268,  32.50572
  49.72270,  31.75286
  49.74272,  36.70920
  49.76274,  35.07302
  49.78276,  34.23342
  49.80278,  34.46227
  49.82280,  33.62637
  49.84282,  37.51724
  49.86284,  37.94464
  49.88286,  35.11542
  49.90288,  39.83269
  49.92290,  38.60722
  49.94292,  35.18164
  49.96293,  35.98354
  49.98295,  35.52028
  50.00297,  37.78246
  50.02299,  39.62666
  50.04301,  33.60642
  50.06303,  32.09947
  50.08305,  33.00794
  50.10307,  33.71649
  50.12309,  41.11672
  50.14311,  37.49829
  50.16313,  38.83225
  50.18315,  38.40839
  50.20317,  34.37135
  50.22319,  37.17062
  50.24321,  37.94266
  50.26323,  40.32163
  50.28325,  43.62143
  50.30327,  43.34939
  50.32329,  39.04093
  50.34331,  41.88895
  50.36333,  43.16682
  50.38335,  46.63515
  50.40337,  49.26386
  50.42339,  46.58007
  50.44341,  46.16200
  50.46343,  53.78505
  50.48345,  57.65526
  50.50347,  59.46483
  50.52348,  67.61912
  50.54350,  75.05648
  50.56352,  83.13539
  50.58354,  93.94384
  50.60356, 108.21207
  50.62358, 129.67477
  50.64360, 156.37750
  50.66362, 176.25077
  50.68364, 198.02336
  50.70366, 212.68937
  50.72368, 235.20820
  50.74370, 246.23764
  50.76372, 234.45549
  50.78374, 212.86602
  50.80376, 199.35472
  50.82378, 186.40015
  50.84380, 184.31895
  50.86382, 156.51564
  50.88384, 137.19076
  50.90386, 129.84516
  50.92388, 110.02681
  50.94390,  90.91009
  50.96392,  80.16750
  50.98394,  65.40460
  51.00396,  59.38116
  51.02398,  54.80424
  51.04400,  45.37128
  51.06402,  42.66014
  51.08404,  38.90220
  51.10406,  39.06420
  51.12408,  40.33861
  51.14410,  36.87535
  51.16412,  37.62998
  51.18414,  37.95356
  51.20416,  36.36256
  51.22418,  33.72043
  51.24420,  38.55564
  51.26422,  37.58495
  51.28423,  37.50905
  51.30425,  31.38750
  51.32427,  31.11374
  51.34429,  30.92046
  51.36431,  33.34166
  51.38433,  35.26890
  51.40435,  34.03643
  51.42437,  34.93667
  51.44439,  34.69541
  51.46441,  30.03757
  51.48443,  31.72280
  51.50445,  37.75922
  51.52447,  34.97805
  51.54449,  30.11691
  51.56451,  31.43976
  51.58453,  32.25168
  51.60455,  33.70361
  51.62457,  32.42674
  51.64459,  31.39176
  51.66461,  35.65701
  51.68463,  33.81230
  51.70465,  32.57598
  51.72467,  29.16974
  51.74469,  30.84832
  51.76471,  31.34504
  51.78473,  34.20476
  51.80475,  31.38185
  51.82477,  34.40671
  51.84479,  30.40250
  51.86481,  31.95090
  51.88483,  30.58838
  51.90485,  32.41276
  51.92487,  28.58219
  51.94489,  29.47708
  51.96491,  30.49951
  51.98493,  34.16827
  52.00495,  31.94957
  52.02497,  33.75376
  52.04499,  31.72283
  52.06501,  29.76630
  52.08503,  30.37795
  52.10505,  29.04714
  52.12507,  31.29609
  52.14509,  32.83181
  52.16511,  35.29174
  52.18513,  32.62549
  52.20515,  30.14258
  52.22517,  34.02032
  52.24519,  35.16417
  52.26521,  31.31203
  52.28523,  31.80860
  52.30525,  30.51484
  52.32527,  27.59154
  52.34529,  31.09507
  52.36531,  31.81828
  52.38533,  31.86296
  52.40535,  30.28137
  52.42537,  32.53609
  52.44539,  29.96659
  52.46541,  29.58317
  52.48543,  30.55799
  52.50545,  31.62980
  52.52547,  28.35917
  52.54549,  31.26311
  52.56551,  33.48640
  52.58553,  30.55398
  52.60555,  30.53354
  52.62557,  31.95059
  52.64559,  29.70379
  52.66561,  30.68798
  52.68563,  27.62381
  52.70565,  30.36606
  52.72567,  28.78866
  52.74569,  31.66879
  52.76571,  29.42674
  52.78573,  31.29416
  52.80575,  29.38164
  52.82577,  28.60433
  52.84579,  34.37343
  52.86581,  33.20693
  52.88583,  31.56141
  52.90585,  31.36029
  52.92587,  31.74437
  52.94589,  28.86637
  52.96591,  29.23362
  52.98593,  29.78943
  53.00595,  30.33399
  53.02597,  30.88316
  53.04599,  32.41244
  53.06601,  29.11534
  53.08603,  28.73413
  53.10605,  32.54422
  53.12607,  29.14078
  53.14609,  30.79882
  53.16611,  31.73254
  53.18613,  32.13031
  53.20615,  33.64732
  53.22617,  28.33533
  53.24619,  26.23425
  53.26621,  32.96075
  53.28623,  32.75085
  53.30625,  34.29716
  53.32627,  34.72113
  53.34629,  31.79361
  53.36631,  30.26340
  53.38633,  32.57325
  53.40635,  32.37344
  53.42637,  30.93100
  53.44639,  28.19448
  53.46641,  28.35224
  53.48643,  31.41644
  53.50645,  32.05424
  53.52647,  26.39960
  53.54649,  30.38717
  53.56652,  28.20083
  53.58654,  30.86305
  53.60656,  31.59734
  53.62657,  28.83709
  53.64660,  29.34077
  53.66662,  29.45694
  53.68664,  28.90194
  53.70666,  30.17817
  53.72668,  31.07262
  53.74670,  31.55934
  53.76672,  31.49395
  53.78674,  31.87382
  53.80676,  28.11057
  53.82678,  31.05407
  53.84680,  29.96276
  53.86682,  30.61935
  53.88684,  32.60014
  53.90686,  33.57388
  53.92688,  30.52888
  53.94690,  30.00170
  53.96692,  29.56441
  53.98694,  32.75780
  54.00696,  29.89575
  54.02698,  30.02477
  54.04700,  30.69311
  54.06702,  31.81467
  54.08704,  30.23123
  54.10706,  31.22057
  54.12708,  31.24130
  54.14710,  31.28402
  54.16712,  31.67432
  54.18714,  31.15948
  54.20716,  32.35838
  54.22718,  27.89024
  54.24720,  23.95423
  54.26722,  25.12290
  54.28724,  30.90686
  54.30726,  29.16834
  54.32728,  27.60896
  54.34731,  31.16293
  54.36733,  30.27559
  54.38735,  31.74096
  54.40737,  30.37973
  54.42739,  25.03174
  54.44741,  29.33430
  54.46743,  32.81673
  54.48745,  31.28396
  54.50747,  28.03575
  54.52749,  28.81283
  54.54751,  26.02721
  54.56753,  28.04171
  54.58755,  29.55844
  54.60757,  26.59868
  54.62759,  24.52657
  54.64761,  32.21477
  54.66763,  25.81953
  54.68765,  25.72564
  54.70767,  26.45361
  54.72769,  31.28374
  54.74771,  27.27109
  54.76773,  28.14938
  54.78775,  30.77160
  54.80777,  28.06306
  54.82779,  31.98616
  54.84781,  27.83243
  54.86784,  34.28410
  54.88786,  28.56334
  54.90788,  28.51213
  54.92790,  31.26524
  54.94792,  27.08842
  54.96794,  30.39583
  54.98796,  29.32065
  55.00798,  29.03620
  55.02800,  29.67667
  55.04802,  27.71057
  55.06804,  26.96115
  55.08806,  28.39861
  55.10808,  24.44096
  55.12810,  23.97004
  55.14812,  26.82372
  55.16814,  29.19182
  55.18816,  33.32571
  55.20818,  31.49851
  55.22820,  28.27913
  55.24822,  29.55341
  55.26824,  26.22397
  55.28826,  31.62582
  55.30829,  29.75268
  55.32831,  29.17820
  55.34833,  26.76862
  55.36835,  29.54370
  55.38837,  26.21983
  55.40839,  27.71157
  55.42841,  26.85932
  55.44843,  27.77294
  55.46845,  27.59089
  55.48847,  31.43431
  55.50849,  33.95343
  55.52851,  26.54505
  55.54853,  29.50571
  55.56855,  26.87883
  55.58857,  30.32835
  55.60859,  26.01294
  55.62861,  27.27076
  55.64864,  29.73482
  55.66866,  27.15653
  55.68868,  27.94528
  55.70870,  29.65505
  55.72872,  27.92249
  55.74874,  29.43589
  55.76876,  28.44285
  55.78878,  28.00957
  55.80880,  28.01526
  55.82882,  27.19587
  55.84884,  26.09150
  55.86886,  25.82498
  55.88888,  26.77629
  55.90890,  31.34028
  55.92892,  30.33556
  55.94894,  25.89023
  55.96897,  28.86376
  55.98899,  29.59823
  56.00901,  29.99154
  56.02903,  28.25174
  56.04905,  29.89978
  56.06907,  28.47579
  56.08909,  26.18268
  56.10911,  27.82721
  56.12913,  28.52140
  56.14915,  27.01082
  56.16917,  26.73097
  56.18919,  28.70600
  56.20921,  27.46088
  56.22923,  29.73906
  56.24925,  28.42517
  56.26927,  27.73030
  56.28930,  29.32486
  56.30932,  27.75286
  56.32934,  25.45715
  56.34936,  26.68811
  56.36938,  24.32967
  56.38940,  29.94957
  56.40942,  25.57089
  56.42944,  26.22955
  56.44946,  27.94866
  56.46948,  25.24666
  56.48950,  27.54821
  56.50952,  28.04557
  56.52954,  26.77320
  56.54956,  28.89583
  56.56959,  28.51543
  56.58961,  25.96798
  56.60963,  26.70777
  56.62965,  28.14951
  56.64967,  31.43665
  56.66969,  27.44584
  56.68971,  24.82839
  56.70973,  27.06435
  56.72975,  27.81444
  56.74977,  26.93887
  56.76979,  27.66633
  56.78981,  32.85287
  56.80984,  28.59542
  56.82986,  27.25630
  56.84988,  23.67534
  56.86990,  27.42950
  56.88992,  28.12485
  56.90994,  28.33773
  56.92996,  28.83248
  56.94998,  30.06426
  56.97000,  29.08898
  56.99002,  28.04394
  57.01004,  26.34041
  57.03006,  26.80360
  57.05008,  28.41992
  57.07011,  29.03044
  57.09013,  24.55249
  57.11015,  26.98802
  57.13017,  28.91420
  57.15019,  27.22150
  57.17021,  25.68156
  57.19023,  26.36298
  57.21025,  24.08769
  57.23027,  27.58357
  57.25029,  26.33596
  57.27032,  27.06407
  57.29034,  26.09738
  57.31036,  29.31738
  57.33038,  27.52011
  57.35040,  28.66840
  57.37042,  25.26415
  57.39044,  25.74650
  57.41046,  23.97837
  57.43048,  25.10542
  57.45050,  25.53051
  57.47052,  29.22057
  57.49054,  27.76803
  57.51057,  21.22336
  57.53059,  28.78112
  57.55061,  28.73410
  57.57063,  24.28347
  57.59065,  24.64978
  57.61067,  28.08010
  57.63069,  28.25850
  57.65071,  28.75296
  57.67073,  27.09980
  57.69075,  29.96754
  57.71078,  30.36023
  57.73080,  25.75510
  57.75082,  24.13910
  57.77084,  24.52567
  57.79086,  27.57339
  57.81088,  24.09618
  57.83090,  23.79955
  57.85092,  25.47593
  57.87094,  27.97372
  57.89096,  29.33949
  57.91099,  30.74592
  57.93101,  30.06345
  57.95103,  28.49466
  57.97105,  27.10936
  57.99107,  28.01593
  58.01109,  29.58043
  58.03111,  24.79254
  58.05113,  26.03412
  58.07115,  25.20302
  58.09117,  24.56898
  58.11120,  27.53820
  58.13122,  26.33643
  58.15124,  24.27441
  58.17126,  26.92871
  58.19128,  26.30655
  58.21130,  27.58807
  58.23132,  26.84382
  58.25134,  27.86787
  58.27136,  23.51189
  58.29138,  25.92325
  58.31141,  24.85301
  58.33143,  26.03272
  58.35145,  24.31088
  58.37147,  26.94073
  58.39149,  27.38151
  58.41151,  26.23087
  58.43153,  24.22678
  58.45156,  25.63030
  58.47158,  26.34764
  58.49160,  25.26755
  58.51162,  27.49047
  58.53164,  25.21120
  58.55166,  26.46627
  58.57168,  25.38114
  58.59170,  28.27279
  58.61172,  26.54007
  58.63174,  25.82045
  58.65177,  26.57933
  58.67179,  27.04147
  58.69181,  27.46024
  58.71183,  24.44818
  58.73185,  25.88046
  58.75187,  26.46096
  58.77189,  26.77185
  58.79191,  27.93342
  58.81194,  25.82590
  58.83196,  26.22490
  58.85198,  27.70701
  58.87200,  26.59891
  58.89202,  25.79619
  58.91204,  26.51518
  58.93206,  25.15170
  58.95208,  28.87995
  58.97211,  28.53037
  58.99213,  27.30731
  59.01215,  29.86420
  59.03217,  29.42576
  59.05219,  29.91209
  59.07221,  26.18745
  59.09223,  29.06290
  59.11226,  26.75072
  59.13228,  22.89776
  59.15230,  27.67134
  59.17232,  26.08733
  59.19234,  29.11038
  59.21236,  24.43134
  59.23238,  26.34083
  59.25240,  27.30979
  59.27242,  26.42888
  59.29245,  27.43871
  59.31247,  25.71092
  59.33249,  25.48723
  59.35251,  26.13552
  59.37253,  26.25626
  59.39255,  25.60670
  59.41257,  27.20329
  59.43259,  24.50799
  59.45262,  25.33069
  59.47264,  25.99884
  59.49266,  26.23638
  59.51268,  26.54937
  59.53270,  24.52085
  59.55272,  26.38575
  59.57274,  25.31811
  59.59277,  28.67499
  59.61279,  24.17075
  59.63281,  27.85953
  59.65283,  22.71222
  59.67285,  23.60527
  59.69287,  24.44114
  59.71289,  25.96180
  59.73292,  25.12707
  59.75294,  23.91339
  59.77296,  28.82803
  59.79298,  25.96264
  59.81300,  23.92514
  59.83302,  26.21861
  59.85304,  27.06876
  59.87307,  25.16344
  59.89309,  24.11900
  59.91311,  27.65513
  59.93313,  27.59199
  59.95315,  25.28326
  59.97317,  23.61949
  59.99319,  24.03419
  60.01322,  25.05204
  60.03324,  28.47010
  60.05326,  25.86345
  60.07328,  26.87946
  60.09330,  28.70652
  60.11332,  27.02977
  60.13334,  26.17759
  60.15337,  26.62263
  60.17339,  27.04230
  60.19341,  24.30242
  60.21343,  27.34234
  60.23345,  27.49723
  60.25347,  25.02370
  60.27349,  25.32419
  60.29352,  26.86461
  60.31354,  25.07963
  60.33356,  25.81968
  60.35358,  25.80057
  60.37360,  26.74213
  60.39363,  25.10888
  60.41365,  25.44327
  60.43367,  24.68593
  60.45369,  26.00528
  60.47371,  23.85328
  60.49373,  22.85456
  60.51375,  24.28888
  60.53378,  25.31141
  60.55380,  20.59229
  60.57382,  21.86621
  60.59384,  22.01274
  60.61386,  25.48009
  60.63388,  24.31540
  60.65391,  24.14548
  60.67393,  22.59589
  60.69395,  22.97739
  60.71397,  28.54812
  60.73399,  22.91686
  60.75401,  27.02201
  60.77404,  22.78631
  60.79406,  20.99288
  60.81408,  23.90003
  60.83410,  26.75433
  60.85412,  22.83101
  60.87414,  26.19516
  60.89416,  25.23826
  60.91419,  23.99835
  60.93421,  24.77464
  60.95423,  24.44446
  60.97425,  26.01361
  60.99427,  21.94298
  61.01429,  26.55393
  61.03432,  23.47082
  61.05434,  23.62987
  61.07436,  25.49236
  61.09438,  25.80931
  61.11440,  23.55683
  61.13442,  25.88171
  61.15445,  26.46883
  61.17447,  26.63521
  61.19449,  27.93943
  61.21451,  27.47554
  61.23453,  27.23513
  61.25456,  25.49279
  61.27458,  24.27247
  61.29460,  25.46003
  61.31462,  22.97367
  61.33464,  25.60674
  61.35466,  24.78227
  61.37469,  22.91423
  61.39471,  23.03790
  61.41473,  23.14159
  61.43475,  26.23318
  61.45477,  26.70231
  61.47479,  26.69536
  61.49482,  24.37812
  61.51484,  24.64504
  61.53486,  26.36230
  61.55488,  22.30289
  61.57490,  23.22242
  61.59492,  24.89693
  61.61495,  25.22114
  61.63497,  25.36262
  61.65499,  24.03194
  61.67501,  23.18689
  61.69503,  27.22536
  61.71506,  29.61924
  61.73508,  25.91919
  61.75510,  21.28422
  61.77512,  25.30945
  61.79514,  24.72694
  61.81517,  24.28085
  61.83519,  22.58743
  61.85521,  27.89939
  61.87523,  25.83291
  61.89525,  28.35826
  61.91527,  25.10500
  61.93530,  30.81591
  61.95532,  26.82964
  61.97534,  27.60122
  61.99536,  28.01088
  62.01538,  27.39834
  62.03541,  26.36580
  62.05543,  26.86437
  62.07545,  26.04009
  62.09547,  24.64153
  62.11549,  22.99023
  62.13552,  24.21719
  62.15554,  27.12070
  62.17556,  24.17786
  62.19558,  23.07434
  62.21560,  26.62185
  62.23563,  25.50497
  62.25565,  27.73457
  62.27567,  26.18770
  62.29569,  24.76241
  62.31571,  22.53442
  62.33573,  27.30648
  62.35576,  26.25631
  62.37578,  26.37420
  62.39580,  27.41352
  62.41582,  27.71880
  62.43585,  26.11585
  62.45587,  21.68426
  62.47589,  25.17971
  62.49591,  30.76790
  62.51593,  25.61013
  62.53596,  21.41275
  62.55598,  26.73816
  62.57600,  23.83716
  62.59602,  25.90827
  62.61604,  29.47587
  62.63607,  24.35186
  62.65609,  27.80393
  62.67611,  23.85397
  62.69613,  25.44757
  62.71615,  26.26902
  62.73618,  26.45665
  62.75620,  24.34878
  62.77622,  23.68336
  62.79624,  26.02656
  62.81626,  24.39268
  62.83629,  23.08023
  62.85631,  20.30675
  62.87633,  24.75388
  62.89635,  26.29315
  62.91637,  24.22938
  62.93640,  26.29661
  62.95642,  25.41200
  62.97644,  25.78992
  62.99646,  28.80209
  63.01648,  25.22064
  63.03651,  22.86203
  63.05653,  22.27085
  63.07655,  23.55921
  63.09657,  23.22448
  63.11660,  25.49035
  63.13662,  25.50310
  63.15664,  24.04309
  63.17666,  23.87308
  63.19668,  24.39722
  63.21671,  26.00072
  63.23673,  23.80789
  63.25675,  25.92341
  63.27677,  24.44852
  63.29680,  24.44701
  63.31682,  22.44478
  63.33684,  23.11964
  63.35686,  25.85803
  63.37689,  27.34626
  63.39691,  22.10991
  63.41693,  24.24473
  63.43695,  24.32152
  63.45697,  25.36789
  63.47700,  23.73733
  63.49702,  25.15603
  63.51704,  27.24231
  63.53706,  26.08300
  63.55709,  24.51499
  63.57711,  23.91748
  63.59713,  25.27083
  63.61715,  23.83607
  63.63718,  26.55797
  63.65720,  25.60242
  63.67722,  24.77523
  63.69724,  24.89803
  63.71726,  26.98742
  63.73729,  27.48716
  63.75731,  27.12622
  63.77733,  26.34045
  63.79735,  26.11727
  63.81737,  24.09762
  63.83740,  24.96324
  63.85742,  23.46563
  63.87744,  24.25644
  63.89746,  24.66092
  63.91749,  23.91448
  63.93751,  24.35736
  63.95753,  25.75733
  63.97755,  25.16411
  63.99758,  27.98018
  64.01760,  25.99454
  64.03762,  23.52447
  64.05764,  27.27987
  64.07767,  26.26732
  64.09769,  26.04751
  64.11771,  23.60110
  64.13773,  26.68517
  64.15776,  26.59308
  64.17778,  26.47140
  64.19780,  25.90227
  64.21782,  27.03269
  64.23785,  25.10851
  64.25787,  21.98348
  64.27789,  25.85702
  64.29791,  23.83420
  64.31793,  25.86761
  64.33796,  23.56158
  64.35798,  25.70113
  64.37800,  24.44241
  64.39803,  23.90693
  64.41805,  28.89337
  64.43807,  24.14768
  64.45809,  23.28100
  64.47811,  23.87900
  64.49814,  29.58970
  64.51816,  26.26854
  64.53818,  29.72450
  64.55820,  29.88315
  64.57823,  29.19762
  64.59825,  24.71683
  64.61827,  28.19270
  64.63830,  29.98118
  64.65832,  31.15527
  64.67834,  33.65398
  64.69836,  34.31113
  64.71839,  37.28823
  64.73841,  39.18362
  64.75843,  44.19886
  64.77845,  44.63910
  64.79848,  50.12146
  64.81850,  52.89534
  64.83852,  63.76412
  64.85854,  62.91452
  64.87857,  61.24979
  64.89859,  60.65354
  64.91861,  60.04306
  64.93863,  58.07336
  64.95866,  56.35502
  64.97868,  50.04890
  64.99870,  50.10603
  65.01872,  49.15861
  65.03875,  49.41649
  65.05877,  44.70722
  65.07879,  42.62035
  65.09881,  38.98776
  65.11884,  36.56647
  65.13886,  36.02493
  65.15888,  35.40878
  65.17891,  31.76503
  65.19893,  31.32434
  65.21895,  32.04811
  65.23897,  28.85123
  65.25900,  26.53463
  65.27902,  23.36581
  65.29904,  28.68098
  65.31906,  29.32612
  65.33909,  29.27990
  65.35911,  26.73397
  65.37913,  22.57193
  65.39916,  21.92168
  65.41918,  23.96649
  65.43920,  23.64542
  65.45922,  23.33532
  65.47925,  23.63125
  65.49927,  24.72702
  65.51929,  25.32021
  65.53931,  23.60116
  65.55934,  26.49223
  65.57936,  22.52444
  65.59938,  24.36559
  65.61941,  25.02479
  65.63943,  23.49732
  65.65945,  22.22199
  65.67947,  25.01447
  65.69950,  23.99234
  65.71952,  25.81572
  65.73954,  22.13980
  65.75957,  20.54397
  65.77959,  20.88431
  65.79961,  24.03698
  65.81963,  23.52914
  65.83966,  26.20628
  65.85968,  23.08246
  65.87970,  22.77199
  65.89973,  25.26641
  65.91975,  25.99381
  65.93977,  25.65427
  65.95979,  24.85234
  65.97982,  23.12878
  65.99984,  22.76401
  66.01986,  22.40693
  66.03988,  24.75624
  66.05991,  23.97850
  66.07993,  22.85284
  66.09995,  25.47321
  66.11998,  23.31628
  66.14000,  24.33928
  66.16002,  23.12219
  66.18005,  23.25192
  66.20007,  24.36854
  66.22009,  22.53329
  66.24011,  21.07096
  66.26014,  22.73330
  66.28016,  26.68972
  66.30018,  26.05528
  66.32021,  19.90446
  66.34023,  25.53442
  66.36025,  23.39745
  66.38027,  25.03677
  66.40030,  26.23817
  66.42032,  24.72001
  66.44034,  24.35819
  66.46037,  25.67344
  66.48039,  25.26420
  66.50041,  22.07173
  66.52044,  25.15372
  66.54046,  25.96001
  66.56048,  22.97624
  66.58051,  23.43742
  66.60053,  23.40061
  66.62055,  23.09231
  66.64057,  25.99502
  66.66060,  21.03514
  66.68062,  23.02944
  66.70064,  24.98228
  66.72067,  22.86203
  66.74069,  23.68015
  66.76071,  22.40113
  66.78074,  23.84960
  66.80076,  22.51209
  66.82078,  19.78297
  66.84080,  21.54874
  66.86083,  23.80534
  66.88085,  23.98871
  66.90088,  22.07822
  66.92090,  23.41734
  66.94092,  21.84230
  66.96094,  20.64093
  66.98097,  21.84623
  67.00099,  23.92083
  67.02101,  21.04669
  67.04104,  22.36086
  67.06106,  25.46610
  67.08108,  23.34615
  67.10111,  26.39240
  67.12113,  21.66813
  67.14115,  23.59947
  67.16118,  22.31489
  67.18120,  26.43346
  67.20122,  21.44328
  67.22125,  26.08159
  67.24127,  25.42094
  67.26129,  26.12733
  67.28131,  24.88465
  67.30134,  25.04117
  67.32136,  25.47940
  67.34138,  27.14355
  67.36141,  22.92429
  67.38143,  26.11631
  67.40145,  22.57737
  67.42148,  21.51103
  67.44150,  23.31722
  67.46152,  27.57677
  67.48155,  23.10554
  67.50157,  22.00315
  67.52159,  19.42056
  67.54162,  20.79231
  67.56164,  20.94832
  67.58166,  24.27610
  67.60169,  25.98184
  67.62171,  24.22242
  67.64173,  21.28320
  67.66176,  23.54728
  67.68178,  20.86066
  67.70180,  21.14718
  67.72183,  22.21052
  67.74185,  22.69011
  67.76187,  23.01662
  67.78190,  22.48954
  67.80192,  23.43388
  67.82194,  25.82672
  67.84197,  20.42862
  67.86199,  23.17455
  67.88201,  22.53275
  67.90204,  24.16770
  67.92206,  23.61500
  67.94208,  22.26384
  67.96211,  22.62750
  67.98213,  26.53036
  68.00215,  23.48599
  68.02218,  24.38904
  68.04220,  23.79667
  68.06222,  22.12873
  68.08225,  23.66676
  68.10227,  22.81785
  68.12229,  22.27769
  68.14232,  22.45259
  68.16234,  23.20609
  68.18237,  20.64206
  68.20239,  21.66929
  68.22241,  23.26938
  68.24244,  23.61638
  68.26246,  24.51889
  68.28248,  23.07655
  68.30251,  22.33466
  68.32253,  24.82044
  68.34255,  21.01435
  68.36258,  22.10134
  68.38260,  23.50585
  68.40262,  23.43186
  68.42265,  22.95060
  68.44267,  23.28389
  68.46269,  22.76245
  68.48272,  22.92123
  68.50274,  23.06953
  68.52277,  25.74376
  68.54279,  21.68127
  68.56281,  24.48822
  68.58284,  20.95370
  68.60286,  20.91851
  68.62288,  21.44088
  68.64291,  22.88976
  68.66293,  20.08982
  68.68295,  23.82741
  68.70298,  21.31767
  68.72300,  23.37546
  68.74302,  24.11346
  68.76305,  26.44973
  68.78307,  20.55987
  68.80310,  21.76114
  68.82312,  23.35337
  68.84314,  23.25340
  68.86317,  23.32399
  68.88319,  22.70334
  68.90321,  24.30782
  68.92324,  21.67491
  68.94326,  21.23278
  68.96328,  24.56579
  68.98331,  23.30857
  69.00333,  22.45767
  69.02336,  23.62910
  69.04338,  21.42321
  69.06340,  24.24911
  69.08343,  22.42553
  69.10345,  21.04797
  69.12347,  20.94470
  69.14350,  22.48805
  69.16352,  21.98728
  69.18355,  19.17827
  69.20357,  21.77794
  69.22359,  23.01125
  69.24362,  25.32225
  69.26364,  23.26384
  69.28366,  23.00842
  69.30369,  22.48050
  69.32371,  21.22415
  69.34373,  22.29719
  69.36376,  22.07120
  69.38378,  21.86111
  69.40381,  23.77446
  69.42383,  22.52182
  69.44386,  25.52814
  69.46388,  21.93312
  69.48390,  21.61238
  69.50393,  21.12460
  69.52395,  22.30905
  69.54397,  22.98475
  69.56400,  22.33122
  69.58402,  27.16185
  69.60405,  25.28562
  69.62407,  26.67088
  69.64409,  24.63225
  69.66412,  22.05186
  69.68414,  23.22940
  69.70416,  24.05704
  69.72419,  25.12377
  69.74421,  21.68746
  69.76424,  22.87838
  69.78426,  21.77038
  69.80428,  22.77648
  69.82431,  23.73745
  69.84433,  20.65742
  69.86436,  22.37136
  69.88438,  18.75935
  69.90440,  24.19394
  69.92443,  23.00171
  69.94445,  21.03948
  69.96448,  25.11685
  69.98450,  24.80264
  70.00452,  21.31743
  70.02455,  21.11175
  70.04457,  25.09933
  70.06460,  21.42090
  70.08462,  22.35452
  70.10464,  22.95430
  70.12467,  22.88983
  70.14469,  20.22772
  70.16472,  23.48994
  70.18474,  24.42033
  70.20476,  22.83522
  70.22479,  22.93054
  70.24481,  21.96767
  70.26484,  21.30537
  70.28486,  19.32810
  70.30488,  20.88209
  70.32491,  23.82150
  70.34493,  23.18154
  70.36496,  21.62993
  70.38498,  21.79507
  70.40500,  22.59056
  70.42503,  22.81145
  70.44505,  23.27180
  70.46508,  21.34379
  70.48510,  22.89967
  70.50513,  22.18261
  70.52515,  21.14197
  70.54517,  22.60739
  70.56520,  23.31255
  70.58522,  23.29389
  70.60525,  21.86820
  70.62527,  19.37661
  70.64529,  23.53671
  70.66532,  23.98026
  70.68534,  22.78393
  70.70537,  22.29936
  70.72539,  22.15634
  70.74542,  21.01991
  70.76544,  20.99875
  70.78546,  21.95654
  70.80549,  22.79627
  70.82551,  23.23332
  70.84554,  20.72180
  70.86556,  24.71548
  70.88558,  21.48398
  70.90561,  22.36091
  70.92563,  24.31867
  70.94566,  21.68252
  70.96568,  23.72765
  70.98571,  23.52692
  71.00573,  21.87452
  71.02576,  20.96734
  71.04578,  20.74280
  71.06580,  19.71700
  71.08583,  22.89813
  71.10585,  21.98779
  71.12588,  22.93575
  71.14590,  22.74629
  71.16593,  20.37427
  71.18595,  21.46596
  71.20597,  24.33819
  71.22600,  22.47095
  71.24602,  22.61999
  71.26605,  20.79968
  71.28607,  22.77783
  71.30610,  19.44521
  71.32612,  21.78911
  71.34614,  20.53124
  71.36617,  23.12239
  71.38619,  24.09636
  71.40622,  22.47211
  71.42624,  22.85318
  71.44627,  24.21525
  71.46629,  21.45668
  71.48632,  19.99101
  71.50634,  20.42417
  71.52636,  21.65582
  71.54639,  21.56219
  71.56641,  20.86561
  71.58644,  20.27149
  71.60646,  21.27644
  71.62649,  24.32298
  71.64651,  23.12571
  71.66654,  23.33914
  71.68656,  20.95312
  71.70658,  22.17007
  71.72661,  23.98661
  71.74663,  18.68307
  71.76666,  22.57355
  71.78668,  25.83576
  71.80671,  23.91118
  71.82673,  23.63342
  71.84676,  24.54197
  71.86678,  21.72994
  71.88681,  22.25002
  71.90683,  23.57918
  71.92685,  19.39159
  71.94688,  23.42371
  71.96690,  21.91328
  71.98693,  20.92442
  72.00695,  21.55076
  72.02698,  20.39404
  72.04700,  21.32557
  72.06703,  26.40762
  72.08705,  21.60120
  72.10707,  20.48838
  72.12710,  20.48792
  72.14713,  20.10680
  72.16715,  20.73256
  72.18717,  19.28551
  72.20720,  23.36309
  72.22722,  22.33882
  72.24725,  19.33025
  72.26727,  24.67691
  72.28730,  22.08686
  72.30732,  23.82077
  72.32735,  25.04781
  72.34737,  22.15986
  72.36740,  22.59439
  72.38742,  25.41538
  72.40745,  23.55818
  72.42747,  25.98178
  72.44749,  21.90108
  72.46752,  19.02378
  72.48755,  22.51487
  72.50757,  22.24021
  72.52759,  23.77635
  72.54762,  21.75220
  72.56764,  19.82254
  72.58767,  23.75569
  72.60769,  24.75540
  72.62772,  21.65560
  72.64774,  21.22347
  72.66777,  17.79943
  72.68779,  18.13477
  72.70782,  21.37273
  72.72784,  21.17190
  72.74787,  22.98304
  72.76789,  22.05452
  72.78792,  18.25266
  72.80794,  23.97555
  72.82797,  22.54869
  72.84799,  22.77467
  72.86802,  23.83433
  72.88804,  22.12399
  72.90807,  21.73535
  72.92809,  22.34568
  72.94812,  20.59426
  72.96814,  23.07192
  72.98817,  21.83391
  73.00819,  20.72611
  73.02822,  22.70763
  73.04824,  23.61345
  73.06826,  25.63155
  73.08829,  27.28541
  73.10831,  23.59560
  73.12834,  22.63957
  73.14836,  22.33838
  73.16839,  22.17220
  73.18842,  20.99434
  73.20844,  21.52332
  73.22847,  23.61697
  73.24849,  24.72302
  73.26851,  23.27074
  73.28854,  20.16652
  73.30856,  20.13010
  73.32859,  20.98030
  73.34862,  23.15727
  73.36864,  25.43542
  73.38866,  25.22172
  73.40869,  26.57583
  73.42872,  21.43765
  73.44874,  23.14124
  73.46876,  19.99414
  73.48879,  20.76167
  73.50881,  22.65461
  73.52884,  23.05127
  73.54887,  22.78412
  73.56889,  22.21434
  73.58892,  22.36575
  73.60894,  20.69407
  73.62896,  20.16985
  73.64899,  26.36629
  73.66902,  21.32528
  73.68904,  25.11291
  73.70907,  21.82442
  73.72909,  21.60271
  73.74912,  22.58031
  73.76914,  22.88136
  73.78917,  21.97483
  73.80919,  18.58900
  73.82922,  20.89924
  73.84924,  20.90386
  73.86927,  24.82275
  73.88929,  24.73220
  73.90932,  23.72593
  73.92934,  20.27256
  73.94937,  19.58480
  73.96939,  20.97670
  73.98942,  20.27140
  74.00944,  22.36491
  74.02947,  26.22778
  74.04949,  26.87515
  74.06952,  24.53553
  74.08954,  22.01746
  74.10957,  26.01995
  74.12959,  26.88094
  74.14962,  24.05078
  74.16965,  25.54880
  74.18967,  27.80325
  74.20970,  28.19375
  74.22972,  26.16748
  74.24975,  28.32508
  74.26977,  33.39297
  74.28980,  30.39391
  74.30982,  30.78051
  74.32985,  33.09113
  74.34987,  36.66120
  74.36990,  38.82583
  74.38993,  47.20724
  74.40995,  49.93234
  74.42998,  60.44544
  74.45000,  68.34656
  74.47003,  88.27982
  74.49005, 104.79428
  74.51008, 106.87299
  74.53010, 114.82043
  74.55013, 118.14577
  74.57015, 112.34162
  74.59018, 101.71833
  74.61020,  96.59017
  74.63023,  86.10662
  74.65025,  75.39417
  74.67028,  70.52709
  74.69031,  73.36695
  74.71033,  74.53303
  74.73036,  73.39969
  74.75038,  68.94283
  74.77041,  70.83852
  74.79043,  64.96082
  74.81046,  60.41016
  74.83048,  57.50440
  74.85051,  52.41697
  74.87053,  46.34564
  74.89056,  36.70442
  74.91059,  32.39370
  74.93061,  30.93249
  74.95064,  28.01845
  74.97066,  28.08765
  74.99069,  27.53470
  75.01071,  25.31728
  75.03074,  28.21083
  75.05077,  23.18927
  75.07079,  24.19638
  75.09082,  22.37156
  75.11084,  20.95151
  75.13087,  21.34288
  75.15089,  20.46861
  75.17092,  23.30124
  75.19094,  24.84519
  75.21097,  24.59064
  75.23100,  21.37583
  75.25102,  20.79345
  75.27105,  22.97276
  75.29107,  21.87777
  75.31110,  23.99970
  75.33112,  24.03596
  75.35115,  23.32501
  75.37118,  22.69237
  75.39120,  25.10671
  75.41123,  19.46485
  75.43125,  20.60444
  75.45128,  19.42974
  75.47130,  20.71261
  75.49133,  23.71001
  75.51136,  24.57600
  75.53138,  21.90599
  75.55141,  23.85857
  75.57143,  20.02136
  75.59146,  20.95435
  75.61148,  20.64760
  75.63151,  24.06891
  75.65154,  21.02733
  75.67156,  19.78224
  75.69159,  19.67507
  75.71161,  23.13069
  75.73164,  20.70020
  75.75167,  20.47487
  75.77169,  24.28740
  75.79172,  21.65598
  75.81174,  19.79752
  75.83177,  21.96817
  75.85179,  22.39378
  75.87182,  22.65583
  75.89185,  20.89644
  75.91187,  20.88339
  75.93190,  22.62137
  75.95192,  23.16747
  75.97195,  22.80888
  75.99198,  23.07518
  76.01200,  23.85598
  76.03203,  22.14521
  76.05205,  20.57746
  76.07208,  22.61303
  76.09211,  22.89408
  76.11213,  21.41159
  76.13216,  20.51675
  76.15218,  20.30991
  76.17221,  22.88701
  76.19224,  22.92715
  76.21226,  22.25607
  76.23229,  20.88203
  76.25231,  23.79139
  76.27234,  20.09945
  76.29237,  19.99403
  76.31239,  21.70813
  76.33242,  20.79705
  76.35244,  21.64851
  76.37247,  20.03666
  76.39250,  19.48212
  76.41252,  21.76166
  76.43255,  20.65831
  76.45257,  21.15086
  76.47260,  21.72416
  76.49263,  21.09006
  76.51265,  23.83763
  76.53268,  20.10725
  76.55270,  22.83769
  76.57273,  19.99023
  76.59276,  21.54432
  76.61278,  21.57691
  76.63281,  21.16852
  76.65283,  21.12740
  76.67286,  20.54247
  76.69289,  20.16372
  76.71291,  21.08949
  76.73294,  22.26339
  76.75297,  21.95499
  76.77299,  22.49920
  76.79302,  21.39381
  76.81304,  23.76702
  76.83307,  24.58789
  76.85310,  22.20172
  76.87312,  21.77175
  76.89315,  20.66063
  76.91318,  19.41371
  76.93320,  23.51444
  76.95323,  18.17984
  76.97325,  18.10021
  76.99328,  20.60782
  77.01331,  20.86521
  77.03333,  20.36101
  77.05336,  21.69601
  77.07339,  21.05149
  77.09341,  22.90435
  77.11344,  22.64086
  77.13346,  23.02372
  77.15349,  22.02246
  77.17352,  22.94484
  77.19354,  22.51703
  77.21357,  20.44998
  77.23360,  19.52700
  77.25362,  18.97390
  77.27365,  20.07048
  77.29367,  22.29303
  77.31370,  23.73920
  77.33373,  22.44672
  77.35376,  22.60735
  77.37378,  22.72299
  77.39381,  21.04628
  77.41383,  21.26072
  77.43386,  20.16529
  77.45389,  24.83006
  77.47391,  21.33244
  77.49394,  19.13728
  77.51397,  18.14184
  77.53399,  19.60028
  77.55402,  17.95430
  77.57405,  19.71982
  77.59407,  19.23677
  77.61410,  21.49771
  77.63412,  19.69296
  77.65415,  19.49460
  77.67418,  21.50868
  77.69420,  22.63833
  77.71423,  20.66818
  77.73426,  19.15376
  77.75428,  22.86896
  77.77431,  23.22192
  77.79434,  19.48053
  77.81436,  23.13809
  77.83439,  23.16964
  77.85442,  19.84840
  77.87444,  21.23497
  77.89447,  21.17569
  77.91450,  21.42357
  77.93452,  20.23999
  77.95455,  20.16283
  77.97458,  19.67260
  77.99460,  21.33060
  78.01463,  19.09860
  78.03466,  20.97150
  78.05468,  21.03837
  78.07471,  23.09918
  78.09474,  20.70449
  78.11476,  21.35611
  78.13479,  21.23674
  78.15482,  24.24060
  78.17484,  20.44306
  78.19487,  21.72387
  78.21490,  19.36030
  78.23492,  23.69452
  78.25495,  21.03465
  78.27498,  20.42146
  78.29500,  22.86461
  78.31503,  18.75907
  78.33506,  22.42326
  78.35508,  21.68943
  78.37511,  22.39165
  78.39514,  22.68627
  78.41517,  22.18447
  78.43519,  21.26789
  78.45522,  22.71585
  78.47525,  21.24584
  78.49527,  20.61203
  78.51530,  20.92855
  78.53533,  20.46019
  78.55535,  20.43540
  78.57538,  20.94499
  78.59541,  21.56197
  78.61543,  19.84192
  78.63546,  19.83331
  78.65549,  20.41063
  78.67551,  18.07777
  78.69554,  19.75337
  78.71557,  22.08577
  78.73559,  21.27993
  78.75562,  21.23460
  78.77565,  22.44630
  78.79568,  21.05884
  78.81570,  21.10852
  78.83573,  21.80650
  78.85576,  20.76193
  78.87578,  21.44091
  78.89581,  20.61960
  78.91584,  18.90558
  78.93586,  19.12288
  78.95589,  24.08265
  78.97592,  20.19678
  78.99595,  20.55919
  79.01597,  18.27848
  79.03600,  20.09565
  79.05603,  21.14823
  79.07605,  21.58809
  79.09608,  22.02349
  79.11611,  21.96855
  79.13613,  18.87652
  79.15616,  19.49981
  79.17619,  20.44940
  79.19622,  18.53016
  79.21624,  22.19017
  79.23627,  20.78460
  79.25630,  22.24318
  79.27632,  22.63661
  79.29635,  22.08824
  79.31638,  22.21270
  79.33640,  20.30411
  79.35643,  21.53986
  79.37646,  24.73461
  79.39649,  23.24637
  79.41651,  21.60575
  79.43654,  23.54141
  79.45657,  23.86756
  79.47660,  22.57817
  79.49662,  22.37542
  79.51665,  20.40526
  79.53668,  22.60682
  79.55670,  22.38341
  79.57673,  19.26551
  79.59676,  20.99194
  79.61679,  18.86802
  79.63681,  20.28323
  79.65684,  21.78779
  79.67687,  20.31438
  79.69689,  22.29110
  79.71692,  23.32233
  79.73695,  18.67094
  79.75698,  19.95609
  79.77700,  21.29382
  79.79703,  19.65889
  79.81706,  18.42802
  79.83709,  19.92960
  79.85711,  22.34434
  79.87714,  20.77230
  79.89717,  19.63251
  79.91720,  21.69542
  79.93722,  23.88871
  79.95725,  22.51672
  79.97728,  19.72704
  79.99731,  19.07754
  80.01733,  18.95182
  80.03736,  21.01127
  80.05739,  22.14680
  80.07742,  22.99344
  80.09744,  22.27494
  80.11747,  23.33459
  80.13750,  21.99188
  80.15753,  20.15410
  80.17755,  21.49719
  80.19758,  22.99143
  80.21761,  22.45479
  80.23764,  20.09981
  80.25766,  18.87679
  80.27769,  19.76872
  80.29772,  22.80235
  80.31775,  21.69259
  80.33777,  21.60358
  80.35780,  22.00915
  80.37783,  23.68054
  80.39786,  21.61942
  80.41788,  19.15250
  80.43791,  21.16773
  80.45794,  20.28082
  80.47797,  20.65436
  80.49799,  22.35354
  80.51802,  23.51166
  80.53805,  20.55375
  80.55808,  20.60503
  80.57811,  21.44912
  80.59813,  20.72515
  80.61816,  20.99262
  80.63819,  20.46475
  80.65822,  20.75675
  80.67824,  19.77620
  80.69827,  22.08283
  80.71830,  17.32598
  80.73833,  21.62622
  80.75835,  20.77441
  80.77838,  19.77419
  80.79841,  20.00900
  80.81844,  21.40209
  80.83847,  21.18836
  80.85849,  24.93583
  80.87852,  22.86984
  80.89855,  21.76271
  80.91858,  19.85530
  80.93860,  22.15306
  80.95863,  22.37456
  80.97866,  21.24032
  80.99869,  20.47646
  81.01872,  19.01450
  81.03874,  20.03594
  81.05877,  22.48449
  81.07880,  22.01111
  81.09883,  19.96479
  81.11885,  22.49749
  81.13888,  19.59166
  81.15891,  21.20539
  81.17894,  23.63599
  81.19897,  22.26527
  81.21900,  21.41600
  81.23902,  20.15550
  81.25905,  21.49604
  81.27908,  21.97581
  81.29911,  24.41115
  81.31913,  24.49960
  81.33916,  21.29286
  81.35919,  22.29166
  81.37922,  24.18869
  81.39925,  21.17143
  81.41927,  18.47604
  81.43930,  19.09534
  81.45933,  21.12292
  81.47936,  23.55063
  81.49939,  25.91465
  81.51941,  23.95022
  81.53944,  19.56901
  81.55947,  20.42451
  81.57950,  20.72087
  81.59953,  22.06638
  81.61955,  20.02973
  81.63958,  22.34211
  81.65961,  22.91324
  81.67964,  22.48729
  81.69967,  22.84381
  81.71969,  22.38418
  81.73972,  24.01062
  81.75975,  24.08125
  81.77978,  26.14341
  81.79981,  27.73161
  81.81984,  27.99921
  81.83986,  28.15226
  81.85989,  30.57601
  81.87992,  32.90893
  81.89995,  31.55552
  81.91998,  37.26587
  81.94000,  37.81613
  81.96003,  37.81692
  81.98006,  41.98532
  82.00009,  51.17316
  82.02012,  56.19843
  82.04015,  68.46881
  82.06017,  77.95140
  82.08020,  85.12931
  82.10023,  91.89424
  82.12026, 100.28755
  82.14029, 106.75223
  82.16032, 107.12071
  82.18034,  97.85330
  82.20037,  88.86678
  82.22040,  84.87695
  82.24043,  73.46363
  82.26046,  67.72850
  82.28049,  65.94167
  82.30052,  59.49069
  82.32054,  61.28982
  82.34057,  62.05435
  82.36060,  62.63994
  82.38063,  61.05701
  82.40066,  62.85853
  82.42068,  62.65373
  82.44071,  54.16790
  82.46074,  52.60379
  82.48077,  49.91415
  82.50080,  44.02198
  82.52083,  42.69198
  82.54086,  36.82547
  82.56088,  29.47942
  82.58091,  28.89359
  82.60094,  24.44039
  82.62097,  26.08958
  82.64100,  27.31571
  82.66103,  25.97001
  82.68105,  26.78884
  82.70108,  25.52174
  82.72111,  23.24470
  82.74114,  21.63790
  82.76117,  22.26176
  82.78120,  24.07339
  82.80123,  24.28248
  82.82126,  21.74216
  82.84128,  21.97336
  82.86131,  20.31919
  82.88134,  20.41375
  82.90137,  22.18685
  82.92140,  21.20456
  82.94143,  20.88928
  82.96146,  19.90594
  82.98148,  21.86193
  83.00151,  22.69504
  83.02154,  21.45275
  83.04157,  22.28949
  83.06160,  22.49587
  83.08163,  19.78015
  83.10166,  22.29186
  83.12169,  22.97802
  83.14171,  21.03114
  83.16174,  18.80774
  83.18177,  18.43650
  83.20180,  21.08430
  83.22183,  18.98447
  83.24186,  19.71543
  83.26189,  21.04931
  83.28192,  21.24402
  83.30194,  21.45438
  83.32197,  20.57333
  83.34200,  22.31275
  83.36203,  22.50243
  83.38206,  21.42109
  83.40209,  21.71417
  83.42212,  17.77595
  83.44215,  20.17446
  83.46218,  20.48891
  83.48220,  22.26452
  83.50223,  21.75585
  83.52226,  18.97196
  83.54229,  19.82071
  83.56232,  18.88232
  83.58235,  21.81826
  83.60238,  21.33240
  83.62241,  21.07825
  83.64244,  18.15797
  83.66246,  18.96066
  83.68249,  21.04837
  83.70252,  19.92235
  83.72255,  19.61731
  83.74258,  20.29228
  83.76261,  17.91652
  83.78264,  19.71901
  83.80267,  19.88044
  83.82270,  19.00553
  83.84273,  17.12416
  83.86275,  19.53795
  83.88279,  20.49827
  83.90281,  16.97064
  83.92284,  19.15740
  83.94287,  21.58377
  83.96290,  21.12671
  83.98293,  22.69643
  84.00296,  21.66974
  84.02299,  21.90705
  84.04302,  18.57499
  84.06305,  21.56907
  84.08308,  20.92172
  84.10311,  22.47225
  84.12313,  19.88246
  84.14316,  21.42126
  84.16319,  22.35123
  84.18322,  20.11770
  84.20325,  21.73867
  84.22328,  22.19221
  84.24331,  21.37294
  84.26334,  20.60762
  84.28337,  21.01093
  84.30340,  19.99927
  84.32343,  22.72154
  84.34346,  18.70886
  84.36349,  21.15613
  84.38351,  20.83390
  84.40354,  19.46447
  84.42357,  20.61934
  84.44360,  19.75766
  84.46363,  20.37249
  84.48366,  21.56315
  84.50369,  21.53595
  84.52372,  22.26387
  84.54375,  21.73011
  84.56378,  20.48453
  84.58381,  19.93837
  84.60384,  20.11038
  84.62387,  19.57608
  84.64390,  19.70157
  84.66393,  18.88237
  84.68396,  20.04331
  84.70398,  24.65388
  84.72401,  21.04957
  84.74404,  22.93724
  84.76407,  21.21082
  84.78410,  19.74857
  84.80413,  21.99295
  84.82416,  24.46073
  84.84419,  19.28350
  84.86422,  19.56025
  84.88425,  21.13444
  84.90428,  21.95693
  84.92431,  21.13958
  84.94434,  20.70766
  84.96437,  18.17784
  84.98440,  20.95266
  85.00443,  22.71739
  85.02446,  20.24180
  85.04449,  22.48436
  85.06452,  22.31237
  85.08455,  21.15621
  85.10458,  19.80997
  85.12461,  22.90066
  85.14464,  18.31818
  85.16466,  19.84318
  85.18470,  20.10550
  85.20472,  21.60921
  85.22475,  21.48220
  85.24478,  20.89290
  85.26481,  22.38363
  85.28484,  21.23480
  85.30487,  19.66757
  85.32490,  20.80517
  85.34493,  19.01963
  85.36496,  18.35709
  85.38499,  21.19966
  85.40502,  22.62910
  85.42505,  20.97193
  85.44508,  18.37524
  85.46511,  18.80093
  85.48514,  21.25778
  85.50517,  19.56839
  85.52520,  20.69553
  85.54523,  20.16415
  85.56526,  20.16321
  85.58529,  20.10800
  85.60532,  20.59275
  85.62535,  17.77806
  85.64538,  21.79643
  85.66541,  16.83468
  85.68544,  20.58640
  85.70547,  19.65559
  85.72550,  20.40048
  85.74553,  23.54228
  85.76556,  20.27963
  85.78559,  20.90344
  85.80562,  19.35017
  85.82565,  18.35477
  85.84568,  19.45813
  85.86571,  18.56536
  85.88574,  18.54423
  85.90577,  18.86860
  85.92580,  21.89569
  85.94583,  19.99927
  85.96586,  20.09796
  85.98589,  21.21299
  86.00592,  19.54002
  86.02595,  19.58775
  86.04598,  20.56269
  86.06601,  20.36336
  86.08604,  22.16677
  86.10607,  19.26099
  86.12610,  20.30530
  86.14613,  21.43845
  86.16616,  20.99322
  86.18619,  18.87575
  86.20622,  21.98486
  86.22625,  23.14661
  86.24628,  21.71424
  86.26631,  20.90789
  86.28634,  19.78695
  86.30637,  20.57183
  86.32640,  22.09238
  86.34643,  19.74417
  86.36646,  19.87347
  86.38649,  19.23694
  86.40652,  18.53322
  86.42655,  22.36478
  86.44658,  23.03390
  86.46661,  21.74991
  86.48665,  21.71122
  86.50667,  18.98753
  86.52671,  20.97508
  86.54674,  20.59019
  86.56677,  19.43106
  86.58680,  19.87038
  86.60683,  17.67541
  86.62686,  20.52168
  86.64689,  19.01373
  86.66692,  20.16042
  86.68695,  18.51399
  86.70698,  19.58914
  86.72701,  19.06086
  86.74704,  21.48154
  86.76707,  23.26683
  86.78710,  20.17965
  86.80713,  22.38475
  86.82716,  19.83633
  86.84719,  18.06791
  86.86722,  20.81203
  86.88725,  16.75270
  86.90728,  20.47853
  86.92731,  19.97738
  86.94735,  21.52355
  86.96738,  19.97218
  86.98741,  20.46360
  87.00744,  20.19897
  87.02747,  23.03709
  87.04750,  20.04477
  87.06753,  21.02692
  87.08756,  20.62620
  87.10759,  21.27739
  87.12762,  19.66598
  87.14765,  22.30962
  87.16768,  20.57221
  87.18771,  18.98821
  87.20774,  20.59970
  87.22777,  20.94484
  87.24780,  19.21117
  87.26784,  22.59994
  87.28787,  20.19629
  87.30790,  17.94621
  87.32793,  18.96960
  87.34796,  19.62314
  87.36799,  20.01303
  87.38802,  20.24040
  87.40805,  18.99028
  87.42808,  19.98716
  87.44811,  21.06827
  87.46814,  20.27623
  87.48817,  19.94806
  87.50820,  24.64810
  87.52824,  22.14886
  87.54827,  20.01902
  87.56830,  19.66061
  87.58833,  19.00705
  87.60836,  17.99301
  87.62839,  20.67243
  87.64842,  21.37920
  87.66845,  20.23583
  87.68848,  22.32335
  87.70851,  18.98196
  87.72854,  19.30282
  87.74858,  20.88262
  87.76861,  19.62258
  87.78864,  20.96627
  87.80867,  21.42100
  87.82870,  20.89628
  87.84873,  22.56864
  87.86876,  20.55487
  87.88879,  18.76673
  87.90882,  17.61287
  87.92885,  20.12922
  87.94889,  18.88575
  87.96892,  19.61851
  87.98895,  17.53807
  88.00898,  23.82295
  88.02901,  22.85225
  88.04904,  20.86037
  88.06907,  22.85777
  88.08910,  19.32317
  88.10913,  21.60494
  88.12917,  20.95279
  88.14920,  18.12076
  88.16923,  19.79449
  88.18926,  18.91590
  88.20929,  19.67737
  88.22932,  22.85597
  88.24935,  21.45138
  88.26938,  22.95078
  88.28942,  21.81442
  88.30945,  21.29055
  88.32948,  20.32707
  88.34951,  17.95194
  88.36954,  18.95413
  88.38957,  22.35592
  88.40960,  18.91443
  88.42963,  21.57972
  88.44967,  23.05465
  88.46970,  18.84639
  88.48973,  22.48458
  88.50976,  19.07394
  88.52979,  18.17161
  88.54982,  19.83501
  88.56985,  22.18501
  88.58989,  21.72509
  88.60992,  21.59066
  88.62995,  23.03382
  88.64998,  20.91564
  88.67001,  19.47411
  88.69004,  19.43754
  88.71007,  19.96616
  88.73011,  21.82493
  88.75014,  21.00755
  88.77017,  19.37059
  88.79020,  22.02241
  88.81023,  22.33827
  88.83026,  20.92334
  88.85030,  20.99817
  88.87033,  21.14500
  88.89036,  19.06131
  88.91039,  22.93200
  88.93042,  20.01531
  88.95045,  16.94279
  88.97048,  18.13384
  88.99052,  19.81362
  89.01055,  19.38272
  89.03058,  21.61233
  89.05061,  24.22717
  89.07064,  19.92755
  89.09067,  20.53634
  89.11071,  22.46242
  89.13074,  22.05115
  89.15077,  20.99602
  89.17080,  24.08444
  89.19083,  20.63406
  89.21087,  23.68360
  89.23090,  24.46829
  89.25093,  23.12838
  89.27096,  22.17909
  89.29099,  19.72898
  89.31102,  18.68730
  89.33106,  21.07708
  89.35109,  22.01759
  89.37112,  20.37517
  89.39115,  19.14378
  89.41118,  20.49598
  89.43122,  21.94182
  89.45125,  21.43798
  89.47128,  20.63354
  89.49131,  20.97075
  89.51134,  22.43467
  89.53137,  23.70503
  89.55141,  23.49771
  89.57144,  22.55241
  89.59147,  17.34155
  89.61150,  20.26668
  89.63153,  23.67451
  89.65157,  21.33058
  89.67160,  22.07452
  89.69163,  23.51777
  89.71166,  20.96541
  89.73169,  19.48906
  89.75173,  23.25308
  89.77176,  21.95324
  89.79179,  20.33582
  89.81182,  20.57838
  89.83185,  25.63433
  89.85189,  24.64659
  89.87192,  22.16051
  89.89195,  23.59596
  89.91198,  24.35581
  89.93201,  22.11416
  89.95205,  21.93815
  89.97208,  23.77242
  89.99211,  23.89724
  90.01214,  26.45208
  90.03217,  25.72485
  90.05221,  22.14606
  90.07224,  24.30163
  90.09227,  26.89403
  90.11231,  30.42921
  90.13234,  26.96629
  90.15237,  29.67586
  90.17240,  27.78074
  90.19243,  32.54007
  90.21247,  34.97989
  90.23250,  36.81866
  90.25253,  40.57737
  90.27256,  50.20746
  90.29260,  51.71720
  90.31263,  64.03093
  90.33266,  64.28767
  90.35269,  76.86587
  90.37272,  94.95297
  90.39276, 102.08187
  90.41279, 113.66985
  90.43282, 119.30786
  90.45285, 121.14180
  90.47289, 119.84559
  90.49292, 111.59063
  90.51295, 107.21182
  90.53298,  95.98506
  90.55302,  90.00872
  90.57305,  76.73493
  90.59308,  73.01498
  90.61311,  64.27280
  90.63315,  62.99291
  90.65318,  66.13140
  90.67321,  62.57581
  90.69325,  71.22451
  90.71328,  62.39874
  90.73331,  76.12995
  90.75334,  70.57294
  90.77337,  67.43727
  90.79341,  61.84492
  90.81344,  55.18081
  90.83347,  54.69858
  90.85351,  47.89102
  90.87354,  41.60872
  90.89357,  39.73551
  90.91360,  37.51003
  90.93364,  33.47619
  90.95367,  27.62450
  90.97370,  27.41451
  90.99373,  26.92312
  91.01377,  25.78314
  91.03380,  22.05592
  91.05383,  25.94890
  91.07387,  25.82844
  91.09390,  25.34564
  91.11393,  24.44115
  91.13396,  21.01391
  91.15400,  21.99864
  91.17403,  22.90751
  91.19406,  20.97629
  91.21410,  19.17936
  91.23413,  19.46803
  91.25416,  21.95260
  91.27419,  19.68082
  91.29423,  18.65117
  91.31426,  19.58369
  91.33429,  20.16681
  91.35433,  19.45533
  91.37436,  20.39842
  91.39439,  21.35248
  91.41442,  21.86836
  91.43446,  20.77660
  91.45449,  19.36624
  91.47452,  20.18232
  91.49456,  23.06030
  91.51459,  22.49407
  91.53462,  20.08533
  91.55466,  19.93108
  91.57469,  20.08147
  91.59472,  22.47961
  91.61475,  20.80638
  91.63479,  20.90912
  91.65482,  21.01399
  91.67485,  17.21018
  91.69489,  21.57253
  91.71492,  25.03312
  91.73495,  17.61175
  91.75499,  20.28387
  91.77502,  21.05076
  91.79505,  20.22285
  91.81509,  19.97236
  91.83512,  19.49079
  91.85515,  19.05886
  91.87519,  20.66777
  91.89522,  19.21530
  91.91525,  21.57446
  91.93529,  21.68300
  91.95532,  22.24841
  91.97535,  18.13832
  91.99539,  17.17940
  92.01542,  20.63061
  92.03545,  20.10193
  92.05549,  18.33742
  92.07552,  19.70738
  92.09555,  19.48636
  92.11559,  17.78167
  92.13562,  21.14797
  92.15565,  21.48144
  92.17569,  21.30836
  92.19572,  19.67888
  92.21575,  20.97555
  92.23579,  23.24401
  92.25582,  20.08167
  92.27585,  22.75653
  92.29589,  21.23498
  92.31592,  19.70643
  92.33596,  17.41620
  92.35599,  18.60633
  92.37602,  21.19214
  92.39605,  19.54466
  92.41609,  18.79460
  92.43612,  17.50894
  92.45616,  17.58058
  92.47619,  19.45400
  92.49622,  18.81379
  92.51626,  19.47315
  92.53629,  19.50192
  92.55632,  21.72153
  92.57636,  20.75584
  92.59639,  22.03690
  92.61643,  17.99329
  92.63646,  20.94379
  92.65649,  19.31873
  92.67653,  19.04770
  92.69656,  18.47363
  92.71659,  18.96882
  92.73663,  20.09091
  92.75666,  20.25085
  92.77670,  19.92550
  92.79673,  21.15683
  92.81676,  20.24033
  92.83680,  18.66499
  92.85683,  19.67002
  92.87686,  18.68040
  92.89690,  19.40909
  92.91693,  21.32937
  92.93697,  21.51065
  92.95700,  22.85136
  92.97703,  21.88536
  92.99707,  19.06433
  93.01710,  21.92248
  93.03714,  20.01976
  93.05717,  19.65914
  93.07721,  18.46770
  93.09724,  20.14145
  93.11727,  18.48190
  93.13731,  20.08951
  93.15734,  16.72724
  93.17737,  18.61616
  93.19741,  19.54975
  93.21744,  19.67930
  93.23748,  19.76906
  93.25751,  17.85787
  93.27755,  17.69230
  93.29758,  18.57367
  93.31761,  21.67950
  93.33765,  20.60445
  93.35768,  20.41561
  93.37772,  18.67461
  93.39775,  20.29281
  93.41778,  21.68575
  93.43782,  18.76835
  93.45785,  19.38592
  93.47789,  20.48484
  93.49792,  21.46738
  93.51795,  19.94937
  93.53799,  19.27632
  93.55802,  20.86711
  93.57806,  21.81907
  93.59809,  21.27790
  93.61813,  17.29937
  93.63816,  20.10903
  93.65820,  21.24727
  93.67823,  16.52991
  93.69827,  21.21236
  93.71830,  18.37503
  93.73833,  21.05252
  93.75837,  18.97632
  93.77840,  19.41117
  93.79844,  20.60699
  93.81847,  20.32076
  93.83851,  18.25558
  93.85854,  16.56723
  93.87858,  19.02509
  93.89861,  18.29950
  93.91864,  17.91477
  93.93868,  15.58491
  93.95871,  19.94757
  93.97875,  21.17222
  93.99878,  17.68126
  94.01882,  17.99132
  94.03885,  19.38340
  94.05889,  20.68178
  94.07892,  21.55136
  94.09895,  20.61312
  94.11899,  19.71928
  94.13902,  18.63971
  94.15906,  18.32016
  94.17909,  17.78956
  94.19913,  19.45538
  94.21916,  18.73395
  94.23920,  21.17280
  94.25923,  19.25518
  94.27927,  18.16499
  94.29930,  14.69723
  94.31934,  18.27321
  94.33937,  19.91333
  94.35941,  21.65468
  94.37944,  20.69786
  94.39948,  15.42923
  94.41951,  18.67988
  94.43955,  21.99562
  94.45958,  20.87066
  94.47962,  18.36211
  94.49965,  19.44392
  94.51969,  21.24385
  94.53972,  18.44136
  94.55976,  19.21301
  94.57979,  22.30119
  94.59983,  19.16328
  94.61986,  20.45408
  94.63990,  20.91555
  94.65993,  20.60274
  94.67997,  18.89245
  94.70000,  20.50630
  94.72004,  19.83649
  94.74007,  21.22419
  94.76011,  21.20854
  94.78014,  21.92246
  94.80018,  18.21628
  94.82021,  19.97334
  94.84025,  19.22783
  94.86028,  19.01456
  94.88032,  20.04557
  94.90035,  19.79335
  94.92039,  20.69793
  94.94042,  19.16417
  94.96046,  21.28334
  94.98049,  20.94317
  95.00053,  19.50138
  95.02056,  19.15543
  95.04060,  20.46459
  95.06063,  18.17650
  95.08067,  18.46801
  95.10071,  19.51566
  95.12074,  17.30817
  95.14078,  21.15202
  95.16081,  19.44598
  95.18085,  21.48889
  95.20088,  21.73727
  95.22092,  20.19244
  95.24095,  19.78036
  95.26099,  19.43597
  95.28102,  20.90065
  95.30106,  19.50688
  95.32109,  22.78472
  95.34113,  22.27026
  95.36117,  21.50539
  95.38120,  19.26973
  95.40124,  22.19688
  95.42127,  20.99857
  95.44131,  23.05906
  95.46134,  19.91449
  95.48138,  22.88502
  95.50141,  24.07145
  95.52145,  24.97092
  95.54149,  24.83590
  95.56152,  25.81033
  95.58156,  28.81588
  95.60159,  33.29734
  95.62163,  36.51730
  95.64166,  41.87286
  95.66170,  43.37107
  95.68174,  46.83153
  95.70177,  49.34418
  95.72181,  52.25834
  95.74184,  52.35041
  95.76188,  48.30994
  95.78191,  43.67193
  95.80195,  40.44618
  95.82199,  37.25592
  95.84202,  32.49193
  95.86206,  32.99715
  95.88209,  33.65150
  95.90213,  30.86392
  95.92216,  30.88552
  95.94220,  36.30890
  95.96224,  36.24498
  95.98227,  34.43476
  96.00231,  36.24267
  96.02234,  37.43108
  96.04238,  35.43778
  96.06242,  33.59297
  96.08245,  32.85832
  96.10249,  32.30019
  96.12252,  26.99107
  96.14256,  26.74577
  96.16260,  23.29712
  96.18263,  22.26037
  96.20267,  25.11136
  96.22271,  21.86104
  96.24274,  21.51865
  96.26278,  21.28475
  96.28281,  19.97731
  96.30285,  23.57221
  96.32289,  23.51979
  96.34292,  21.94244
  96.36296,  20.60981
  96.38299,  19.90720
  96.40303,  19.87425
  96.42307,  21.76327
  96.44310,  21.80950
  96.46314,  20.95861
  96.48318,  19.50781
  96.50321,  21.97800
  96.52325,  21.49092
  96.54328,  21.20429
  96.56332,  21.27122
  96.58336,  19.59498
  96.60339,  22.73887
  96.62343,  19.88144
  96.64347,  17.18271
  96.66350,  19.04130
  96.68354,  18.99530
  96.70357,  20.12541
  96.72361,  19.78614
  96.74365,  19.34193
  96.76368,  20.06669
  96.78372,  19.69577
  96.80376,  22.71648
  96.82379,  18.28549
  96.84383,  20.82493
  96.86387,  18.86549
  96.88390,  20.13550
  96.90394,  18.11109
  96.92398,  18.67835
  96.94401,  16.93604
  96.96405,  18.22658
  96.98409,  18.69170
  97.00412,  17.72668
  97.02416,  17.59797
  97.04420,  17.19669
  97.06423,  18.95921
  97.08427,  18.92667
  97.10431,  21.02081
  97.12434,  22.46621
  97.14438,  21.05559
  97.16442,  18.57094
  97.18445,  19.53614
  97.20449,  20.11850
  97.22453,  20.54008
  97.24456,  20.48254
  97.26460,  17.72026
  97.28464,  17.70477
  97.30467,  20.37487
  97.32471,  19.12460
  97.34475,  20.26348
  97.36479,  21.02945
  97.38482,  20.16393
  97.40486,  19.69415
  97.42490,  23.23297
  97.44493,  22.57263
  97.46497,  19.35463
  97.48501,  17.14204
  97.50504,  18.89097
  97.52508,  20.16800
  97.54512,  20.42277
  97.56516,  20.64491
  97.58519,  17.18518
  97.60523,  21.95963
  97.62526,  18.53318
  97.64530,  17.26550
  97.66534,  18.66377
  97.68538,  19.54055
  97.70542,  19.33846
  97.72545,  19.24883
  97.74549,  18.67050
  97.76553,  17.60811
  97.78556,  19.73159
  97.80560,  21.22071
  97.82564,  18.91372
  97.84568,  20.75821
  97.86571,  20.99876
  97.88575,  20.77618
  97.90579,  20.11684
  97.92582,  19.38400
  97.94586,  20.73015
  97.96590,  21.68739
  97.98594,  18.77913
  98.00597,  20.66097
  98.02601,  17.88714
  98.04605,  17.96484
  98.06609,  20.18215
  98.08612,  21.25457
  98.10616,  17.98849
  98.12620,  20.60376
  98.14623,  21.67497
  98.16627,  21.85459
  98.18631,  19.20869
  98.20635,  20.42065
  98.22639,  21.16876
  98.24642,  19.25544
  98.26646,  17.51979
  98.28650,  19.34709
  98.30654,  21.43511
  98.32657,  24.30489
  98.34661,  24.90897
  98.36665,  23.06631
  98.38669,  24.47008
  98.40672,  25.01953
  98.42676,  25.46035
  98.44680,  25.54594
  98.46684,  26.66165
  98.48688,  29.46116
  98.50691,  27.74991
  98.52695,  28.93769
  98.54699,  32.05491
  98.56703,  37.28847
  98.58706,  37.90326
  98.60710,  39.31264
  98.62714,  43.81690
  98.64718,  47.71649
  98.66721,  46.60326
  98.68725,  46.76085
  98.70729,  51.79193
  98.72733,  44.00812
  98.74737,  34.35490
  98.76741,  34.89204
  98.78744,  33.67985
  98.80748,  33.63737
  98.82752,  31.47557
  98.84756,  28.54504
  98.86760,  30.48752
  98.88763,  32.23777
  98.90767,  33.48456
  98.92771,  33.36098
  98.94775,  30.22748
  98.96779,  32.13250
  98.98782,  33.24071
  99.00786,  32.84121
  99.02790,  32.57787
  99.04794,  31.21235
  99.06798,  28.00964
  99.08802,  28.45419
  99.10805,  28.10370
  99.12809,  25.51958
  99.14813,  26.96461
  99.16817,  26.94598
  99.18821,  24.91720
  99.20825,  22.40826
  99.22828,  17.71375
  99.24832,  18.78943
  99.26836,  21.94244
  99.28840,  20.89077
  99.30844,  21.11300
  99.32847,  18.58259
  99.34851,  16.93336
  99.36855,  20.40550
  99.38859,  20.16438
  99.40863,  19.85191
  99.42867,  21.86787
  99.44871,  18.29969
  99.46874,  19.24513
  99.48878,  21.30591
  99.50882,  17.51943
  99.52886,  19.32450
  99.54890,  21.77817
  99.56894,  21.00410
  99.58897,  18.90463
  99.60901,  21.10835
  99.62905,  18.10643
  99.64909,  18.99926
  99.66913,  18.71587
  99.68917,  19.10279
  99.70921,  18.27182
  99.72925,  20.90891
  99.74928,  20.57548
  99.76932,  20.40086
  99.78936,  22.28528
  99.80940,  17.51997
  99.82944,  16.01436
  99.84948,  20.45675
  99.86952,  21.27677
  99.88956,  20.16461
  99.90960,  19.18736
  99.92963,  19.67069
  99.94967,  17.90493
  99.96971,  18.39465
  99.98975,  16.36567
 100.00979,  20.69717
 100.02983,  20.55681
 100.04987,  19.66170
 100.06991,  18.55750
 100.08995,  18.98488
 100.10998,  19.97304
 100.13002,  19.06453
 100.15006,  18.90026
 100.17010,  18.63462
 100.19014,  16.61895
 100.21018,  20.61214
 100.23022,  18.94949
 100.25026,  19.66708
 100.27030,  19.25314
 100.29034,  20.89466
 100.31038,  18.88947
 100.33041,  18.04268
 100.35045,  16.15798
 100.37049,  18.43643
 100.39053,  21.16031
 100.41057,  17.60055
 100.43061,  18.17151
 100.45065,  17.05024
 100.47069,  20.03360
 100.49073,  19.65004
 100.51077,  18.91397
 100.53081,  18.00056
 100.55085,  18.95793
 100.57089,  18.54518
 100.59093,  18.26946
 100.61096,  17.76781
 100.63101,  16.63254
 100.65104,  18.62205
 100.67108,  20.75653
 100.69112,  20.17304
 100.71116,  21.45831
 100.73120,  19.12188
 100.75124,  18.24315
 100.77128,  17.49586
 100.79132,  18.99275
 100.81136,  18.14343
 100.83140,  16.38063
 100.85144,  16.60289
 100.87148,  19.68190
 100.89152,  16.90445
 100.91156,  16.84409
 100.93160,  17.92904
 100.95164,  16.43218
 100.97168,  16.94002
 100.99172,  18.52190
 101.01176,  21.07433
 101.03180,  20.49953
 101.05184,  20.93959
 101.07188,  21.67906
 101.09192,  19.23897
 101.11196,  20.89670
 101.13200,  17.25115
 101.15204,  17.57180
 101.17208,  17.15974
 101.19212,  17.43418
 101.21216,  19.90510
 101.23220,  18.86123
 101.25224,  15.64809
 101.27228,  14.90474
 101.29232,  17.04885
 101.31236,  19.55483
 101.33239,  18.28609
 101.35244,  16.85748
 101.37248,  16.26273
 101.39252,  16.77661
 101.41256,  17.87746
 101.43260,  17.47886
 101.45264,  20.27810
 101.47268,  21.96882
 101.49272,  19.90612
 101.51276,  21.58534
 101.53280,  19.13031
 101.55284,  18.28522
 101.57288,  16.62645
 101.59292,  16.13829
 101.61296,  18.73955
 101.63300,  18.91544
 101.65304,  20.04533
 101.67308,  20.42234
 101.69312,  21.25260
 101.71316,  19.66349
 101.73320,  18.70929
 101.75324,  17.41372
 101.77328,  16.78039
 101.79332,  20.61284
 101.81336,  16.86588
 101.83340,  17.33959
 101.85344,  16.87771
 101.87348,  19.76841
 101.89352,  17.49018
 101.91356,  17.15552
 101.93360,  17.12806
 101.95365,  17.24333
 101.97369,  18.35100
 101.99373,  20.94096
 102.01377,  19.96344
 102.03381,  16.04773
 102.05385,  19.01379
 102.07389,  19.13382
 102.09393,  19.18741
 102.11397,  18.76354
 102.13401,  17.77933
 102.15405,  20.72207
 102.17409,  18.66644
 102.19413,  19.19836
 102.21417,  21.44464
 102.23421,  20.42531
 102.25426,  18.86452
 102.27430,  18.07593
 102.29434,  18.42707
 102.31438,  19.13434
 102.33442,  20.00025
 102.35446,  17.38297
 102.37450,  19.81896
 102.39454,  17.32731
 102.41458,  19.65464
 102.43462,  19.57438
 102.45467,  17.90747
 102.47471,  20.79581
 102.49475,  15.05812
 102.51479,  19.81100
 102.53483,  19.39090
 102.55487,  19.64697
 102.57491,  17.16988
 102.59495,  20.30011
 102.61499,  19.43377
 102.63504,  16.12534
 102.65508,  16.29641
 102.67512,  18.59230
 102.69516,  19.59161
 102.71520,  16.40130
 102.73524,  19.16984
 102.75528,  18.63007
 102.77532,  18.57117
 102.79537,  18.46104
 102.81541,  18.28382
 102.83545,  20.09505
 102.85549,  19.16414
 102.87553,  20.92248
 102.89557,  18.53495
 102.91561,  18.27577
 102.93566,  17.84982
 102.95570,  18.22214
 102.97574,  16.71929
 102.99578,  15.86903
 103.01582,  16.98125
 103.03586,  19.89524
 103.05590,  19.89110
 103.07595,  18.90657
 103.09599,  17.69674
 103.11603,  16.98372
 103.13607,  16.61978
 103.15611,  18.73167
 103.17615,  17.58842
 103.19620,  19.19028
 103.21624,  18.96733
 103.23628,  20.96556
 103.25632,  17.04752
 103.27636,  18.64353
 103.29641,  19.00891
 103.31645,  17.61527
 103.33649,  18.32570
 103.35653,  18.13805
 103.37657,  17.55685
 103.39661,  16.59516
 103.41665,  18.56404
 103.43670,  18.78249
 103.45674,  18.20826
 103.47678,  16.94255
 103.49682,  18.05798
 103.51686,  17.53554
 103.53691,  16.10127
 103.55695,  18.97971
 103.57699,  19.34077
 103.59703,  20.64948
 103.61708,  19.56877
 103.63712,  17.74610
 103.65716,  15.42922
 103.67720,  18.38917
 103.69724,  17.01468
 103.71729,  16.33583
 103.73733,  19.23145
 103.75737,  18.87254
 103.77741,  18.77645
 103.79745,  17.95004
 103.81750,  18.15713
 103.83754,  18.81347
 103.85758,  18.69273
 103.87762,  18.79043
 103.89767,  20.38353
 103.91771,  16.82911
 103.93775,  19.08706
 103.95779,  19.83366
 103.97784,  18.82785
 103.99788,  17.67554
 104.01792,  18.24736
 104.03796,  13.95823
 104.05801,  20.48302
 104.07805,  18.84549
 104.09809,  20.62609
 104.11813,  19.45114
 104.13817,  17.37880
 104.15822,  17.74327
 104.17826,  17.82525
 104.19830,  17.36502
 104.21835,  16.10927
 104.23839,  16.52882
 104.25843,  16.31410
 104.27847,  19.09182
 104.29852,  17.86678
 104.31856,  19.74217
 104.33860,  18.38849
 104.35865,  19.67968
 104.37869,  18.29383
 104.39873,  16.55259
 104.41877,  19.60632
 104.43882,  18.67559
 104.45886,  17.26798
 104.47890,  17.33777
 104.49895,  19.35765
 104.51899,  17.93772
 104.53903,  17.93014
 104.55907,  19.78107
 104.57912,  19.02396
 104.59916,  18.13713
 104.61920,  17.01444
 104.63925,  16.05146
 104.65929,  18.61842
 104.67933,  17.52911
 104.69938,  17.15404
 104.71942,  18.64635
 104.73946,  18.37610
 104.75951,  18.73955
 104.77955,  17.04761
 104.79959,  19.14411
 104.81964,  19.44764
 104.83968,  19.04668
 104.85972,  16.29818
 104.87976,  15.75190
 104.89981,  17.45999
 104.91985,  18.29162
 104.93990,  16.34542
 104.95994,  17.17158
 104.97998,  19.39202
 105.00002,  18.00330
 105.02007,  17.83551
 105.04011,  18.42305
 105.06016,  18.39901
 105.08020,  17.89346
 105.10024,  17.36275
 105.12029,  19.12232
 105.14033,  19.60283
 105.16037,  17.52772
 105.18042,  16.26093
 105.20046,  17.64267
 105.22050,  19.03757
 105.24055,  17.34099
 105.26059,  17.94418
 105.28063,  18.76534
 105.30068,  21.84807
 105.32072,  20.15539
 105.34076,  20.25478
 105.36081,  19.39370
 105.38085,  17.88656
 105.40090,  16.27586
 105.42094,  18.05732
 105.44098,  19.47968
 105.46103,  17.22803
 105.48107,  17.81946
 105.50112,  19.38209
 105.52116,  21.83863
 105.54120,  18.66381
 105.56125,  17.49498
 105.58129,  16.72542
 105.60134,  16.62746
 105.62138,  18.91985
 105.64142,  17.83048
 105.66147,  18.62185
 105.68151,  18.98453
 105.70156,  17.94835
 105.72160,  20.44935
 105.74164,  17.23599
 105.76169,  16.27198
 105.78173,  17.38433
 105.80178,  19.89549
 105.82182,  17.14321
 105.84187,  17.58496
 105.86191,  19.16355
 105.88195,  19.34243
 105.90200,  19.62015
 105.92204,  18.05031
 105.94209,  18.02803
 105.96213,  18.76189
 105.98218,  17.29219
 106.00222,  15.58184
 106.02226,  19.24119
 106.04231,  18.08730
 106.06235,  19.10382
 106.08240,  17.47902
 106.10244,  17.50223
 106.12249,  19.33216
 106.14253,  17.15265
 106.16257,  18.10453
 106.18262,  16.93987
 106.20267,  17.46279
 106.22271,  18.04835
 106.24275,  16.11401
 106.26280,  19.16979
 106.28284,  18.54589
 106.30289,  21.15960
 106.32293,  20.41466
 106.34298,  16.92169
 106.36302,  19.34068
 106.38307,  17.96258
 106.40311,  17.49890
 106.42316,  18.22279
 106.44320,  19.23121
 106.46325,  17.76688
 106.48329,  18.00364
 106.50334,  18.49917
 106.52338,  17.70084
 106.54343,  15.12969
 106.56347,  16.75758
 106.58352,  16.42965
 106.60356,  17.26761
 106.62361,  17.67746
 106.64365,  16.28146
 106.66370,  17.74240
 106.68374,  21.34840
 106.70379,  17.00618
 106.72383,  18.23871
 106.74388,  19.34605
 106.76392,  16.85252
 106.78397,  19.20632
 106.80401,  18.04634
 106.82406,  17.83212
 106.84410,  19.69593
 106.86415,  18.07424
 106.88420,  17.63429
 106.90424,  18.22397
 106.92429,  16.87552
 106.94433,  17.75408
 106.96438,  19.56658
 106.98442,  19.35074
 107.00447,  14.21553
 107.02451,  20.76775
 107.04456,  15.50052
 107.06460,  18.29759
 107.08465,  17.62378
 107.10469,  19.52588
 107.12474,  18.37809
 107.14479,  19.60401
 107.16483,  18.87043
 107.18488,  19.61482
 107.20492,  16.15605
 107.22497,  20.04014
 107.24501,  19.45302
 107.26506,  17.35206
 107.28511,  17.65596
 107.30515,  17.89134
 107.32520,  15.83759
 107.34524,  18.72342
 107.36529,  19.04171
 107.38534,  17.81997
 107.40538,  18.75482
 107.42543,  19.81180
 107.44547,  17.47895
 107.46552,  18.41181
 107.48556,  17.91752
 107.50561,  18.26456
 107.52566,  19.17731
 107.54570,  19.82513
 107.56575,  19.19695
 107.58579,  19.99981
 107.60584,  17.22467
 107.62589,  18.35221
 107.64593,  17.51194
 107.66598,  16.82110
 107.68603,  18.84293
 107.70607,  18.47296
 107.72612,  18.03983
 107.74616,  17.04684
 107.76621,  17.56714
 107.78626,  17.25849
 107.80630,  19.56801
 107.82635,  17.74800
 107.84640,  19.82271
 107.86644,  18.68227
 107.88649,  16.74094
 107.90654,  16.64264
 107.92658,  17.92588
 107.94663,  16.35465
 107.96667,  18.17525
 107.98672,  18.50334
 108.00677,  20.71505
 108.02681,  17.86846
 108.04686,  17.65037
 108.06691,  17.64925
 108.08696,  14.89491
 108.10700,  14.50527
 108.12705,  20.55520
 108.14709,  18.69475
 108.16714,  16.17768
 108.18719,  17.93454
 108.20723,  16.57285
 108.22728,  15.89002
 108.24733,  17.71342
 108.26737,  15.73154
 108.28742,  18.18667
 108.30747,  17.91658
 108.32752,  19.49911
 108.34756,  17.24668
 108.36761,  17.78068
 108.38766,  18.67828
 108.40770,  19.25204
 108.42775,  15.69819
 108.44780,  18.15925
 108.46785,  19.52790
 108.48789,  18.54752
 108.50794,  19.79277
 108.52799,  17.38287
 108.54803,  17.67952
 108.56808,  17.83970
 108.58813,  20.15258
 108.60817,  20.63293
 108.62822,  18.51455
 108.64827,  17.58201
 108.66832,  17.07944
 108.68836,  19.01241
 108.70841,  18.00976
 108.72846,  19.95989
 108.74851,  19.00363
 108.76855,  19.23232
 108.78860,  17.33242
 108.80865,  19.72850
 108.82870,  16.26006
 108.84874,  17.46346
 108.86879,  19.57362
 108.88884,  19.26270
 108.90889,  19.02630
 108.92893,  18.09892
 108.94898,  19.76888
 108.96903,  18.34610
 108.98908,  17.37673
 109.00912,  19.36353
 109.02917,  18.28472
 109.04922,  19.25669
 109.06927,  16.83416
 109.08932,  18.92936
 109.10936,  20.32919
 109.12941,  18.74419
 109.14946,  17.76213
 109.16951,  16.90904
 109.18955,  17.58678
 109.20960,  19.95515
 109.22965,  19.41058
 109.24970,  16.73448
 109.26975,  14.58202
 109.28980,  17.22182
 109.30984,  18.28986
 109.32989,  17.60554
 109.34994,  19.49254
 109.36999,  16.47428
 109.39004,  17.48840
 109.41008,  19.87794
 109.43013,  18.59503
 109.45018,  19.01153
 109.47023,  19.85139
 109.49028,  19.03840
 109.51033,  19.62363
 109.53037,  16.95556
 109.55042,  19.46891
 109.57047,  16.79938
 109.59052,  16.64662
 109.61057,  16.06991
 109.63062,  16.74568
 109.65066,  17.87877
 109.67071,  20.90911
 109.69076,  18.91838
 109.71081,  16.27978
 109.73086,  16.69692
 109.75091,  17.36673
 109.77095,  17.96342
 109.79100,  18.75202
 109.81105,  17.89742
 109.83110,  16.39932
 109.85115,  16.26951
 109.87120,  15.30006
 109.89125,  18.11979
 109.91130,  18.53866
 109.93135,  16.27540
 109.95139,  18.16358
 109.97144,  16.76396
 109.99149,  17.42047
 110.01154,  18.87840
 110.03159,  18.08752
 110.05164,  16.54081
 110.07169,  20.30795
 110.09174,  17.91865
 110.11178,  19.06981
 110.13183,  17.22096
 110.15188,  18.15155
 110.17193,  19.17856
 110.19198,  18.48638
 110.21203,  16.68088
 110.23208,  19.31388
 110.25213,  16.69560
 110.27218,  15.72847
 110.29223,  16.57039
 110.31228,  19.62172
 110.33233,  16.54484
 110.35237,  17.51423
 110.37242,  18.60160
 110.39247,  18.11924
 110.41252,  18.95458
 110.43257,  20.01993
 110.45262,  20.05677
 110.47267,  20.33500
 110.49272,  16.12768
 110.51277,  15.48891
 110.53282,  19.11257
 110.55287,  17.13744
 110.57292,  16.65502
 110.59297,  18.02854
 110.61302,  16.76842
 110.63307,  17.08972
 110.65312,  17.28367
 110.67317,  19.27234
 110.69322,  18.94344
 110.71327,  19.68694
 110.73332,  18.46416
 110.75337,  18.02596
 110.77342,  19.24870
 110.79347,  17.58181
 110.81352,  19.82301
 110.83356,  18.04406
 110.85362,  16.52915
 110.87367,  18.12429
 110.89372,  19.97091
 110.91377,  16.13300
 110.93382,  17.87163
 110.95387,  19.23542
 110.97392,  17.31501
 110.99397,  16.54939
 111.01402,  19.61179
 111.03407,  20.85744
 111.05412,  20.14085
 111.07417,  18.42411
 111.09422,  17.88707
 111.11427,  17.23096
 111.13432,  16.27916
 111.15437,  19.46717
 111.17442,  19.13092
 111.19447,  19.32993
 111.21452,  19.96399
 111.23457,  17.18002
 111.25462,  19.49020
 111.27467,  18.17461
 111.29472,  17.55070
 111.31477,  19.54522
 111.33482,  19.61957
 111.35487,  16.01057
 111.37492,  18.15164
 111.39497,  19.43593
 111.41502,  19.13947
 111.43507,  17.65845
 111.45513,  18.28226
 111.47518,  18.72853
 111.49523,  15.76526
 111.51528,  17.10010
 111.53533,  18.51126
 111.55538,  18.31337
 111.57543,  17.86853
 111.59548,  19.99902
 111.61553,  17.73529
 111.63558,  20.55210
 111.65563,  17.51119
 111.67569,  17.79972
 111.69574,  18.86857
 111.71579,  19.14142
 111.73584,  17.06396
 111.75589,  16.25054
 111.77594,  18.92082
 111.79599,  18.79143
 111.81604,  18.23763
 111.83609,  17.56165
 111.85615,  17.44449
 111.87620,  18.04215
 111.89625,  15.31731
 111.91630,  16.30171
 111.93635,  19.04411
 111.95640,  18.42937
 111.97645,  18.69548
 111.99650,  15.41621
 112.01655,  18.12543
 112.03661,  18.03111
 112.05666,  18.70442
 112.07671,  18.51398
 112.09676,  18.26605
 112.11681,  19.81647
 112.13687,  18.95038
 112.15692,  20.19224
 112.17697,  16.12598
 112.19702,  16.55260
 112.21707,  18.14151
 112.23712,  17.26671
 112.25718,  16.94668
 112.27723,  17.41009
 112.29728,  17.70105
 112.31733,  18.81337
 112.33738,  15.16780
 112.35743,  19.41875
 112.37749,  19.87464
 112.39754,  17.66920
 112.41759,  19.27177
 112.43764,  23.15288
 112.45769,  20.69235
 112.47775,  19.59244
 112.49780,  18.64768
 112.51785,  19.03566
 112.53790,  19.88435
 112.55796,  17.25988
 112.57801,  17.83988
 112.59806,  19.01703
 112.61811,  17.18788
 112.63816,  18.40658
 112.65822,  20.82276
 112.67827,  15.24835
 112.69832,  17.24760
 112.71837,  20.28880
 112.73843,  18.14022
 112.75848,  16.96153
 112.77853,  16.71902
 112.79858,  16.89204
 112.81864,  16.27745
 112.83869,  18.25787
 112.85874,  18.98687
 112.87879,  19.38897
 112.89885,  16.64672
 112.91890,  19.78141
 112.93895,  21.62818
 112.95900,  16.41516
 112.97906,  17.56581
 112.99911,  16.37984
 113.01916,  17.55961
 113.03922,  16.75445
 113.05927,  14.65522
 113.07932,  16.79591
 113.09938,  17.58447
 113.11943,  18.42497
 113.13948,  18.67279
 113.15953,  17.17691
 113.17959,  19.91948
 113.19964,  19.47793
 113.21969,  20.53349
 113.23975,  18.55268
 113.25980,  16.72079
 113.27985,  21.25737
 113.29991,  17.60037
 113.31996,  18.94743
 113.34001,  16.95914
 113.36006,  19.22702
 113.38012,  17.87537
 113.40017,  17.70081
 113.42022,  16.91696
 113.44028,  16.76011
 113.46033,  17.87326
 113.48038,  18.70293
 113.50044,  20.93690
 113.52049,  17.90388
 113.54055,  17.66899
 113.56060,  20.05532
 113.58065,  19.88865
 113.60071,  16.98046
 113.62076,  17.12898
 113.64081,  18.14988
 113.66087,  19.94165
 113.68092,  19.11558
 113.70098,  20.29436
 113.72103,  16.29035
 113.74108,  16.16241
 113.76114,  17.08784
 113.78119,  20.76225
 113.80124,  18.56763
 113.82130,  18.46203
 113.84135,  17.36426
 113.86141,  20.15743
 113.88146,  17.31537
 113.90151,  18.00801
 113.92157,  19.90993
 113.94162,  18.69776
 113.96168,  17.98989
 113.98173,  18.18466
 114.00179,  15.11001
 114.02184,  16.77566
 114.04189,  18.70407
 114.06195,  19.81131
 114.08200,  19.69690
 114.10206,  18.79092
 114.12211,  19.20005
 114.14217,  17.15524
 114.16222,  15.82427
 114.18227,  17.15316
 114.20233,  16.03988
 114.22238,  18.62002
 114.24244,  19.35811
 114.26249,  19.69020
 114.28255,  17.93889
 114.30260,  17.00579
 114.32266,  14.94579
 114.34271,  17.34510
 114.36277,  16.94174
 114.38282,  17.05349
 114.40287,  14.76997
 114.42293,  16.25679
 114.44298,  19.23521
 114.46304,  20.81424
 114.48310,  18.29213
 114.50315,  18.69596
 114.52320,  21.73494
 114.54326,  18.55787
 114.56332,  19.84052
 114.58337,  18.90576
 114.60342,  20.25453
 114.62348,  19.63541
 114.64354,  20.47878
 114.66359,  19.09171
 114.68365,  21.61348
 114.70370,  18.87443
 114.72376,  18.59642
 114.74381,  14.78577
 114.76387,  15.59474
 114.78392,  20.87290
 114.80398,  17.91782
 114.82403,  20.34399
 114.84409,  20.16525
 114.86414,  17.14463
 114.88420,  19.74638
 114.90426,  22.14395
 114.92431,  20.49737
 114.94437,  19.01331
 114.96442,  18.17057
 114.98448,  20.00589
 115.00453,  19.87987
 115.02459,  16.90001
 115.04465,  22.92788
 115.06470,  21.35772
 115.08476,  19.14353
 115.10481,  20.51322
 115.12487,  19.14234
 115.14492,  18.17173
 115.16498,  22.02139
 115.18504,  22.06511
 115.20509,  18.05852
 115.22515,  22.39373
 115.24520,  21.18763
 115.26526,  20.80329
 115.28532,  20.86445
 115.30537,  26.74138
 115.32543,  21.30139
 115.34549,  21.42354
 115.36554,  22.88407
 115.38560,  24.08497
 115.40565,  20.91718
 115.42571,  22.85506
 115.44577,  20.64457
 115.46582,  20.88553
 115.48588,  21.44519
 115.50594,  25.63335
 115.52599,  26.20521
 115.54605,  27.82029
 115.56611,  27.62989
 115.58616,  25.01357
 115.60622,  29.53585
 115.62628,  29.34921
 115.64633,  31.85285
 115.66639,  32.33765
 115.68645,  34.86914
 115.70650,  32.16085
 115.72656,  39.34452
 115.74662,  41.59958
 115.76667,  42.20941
 115.78673,  48.05374
 115.80679,  54.56069
 115.82684,  55.64579
 115.84690,  58.49502
 115.86696,  61.75471
 115.88701,  64.87134
 115.90707,  68.71621
 115.92713,  70.10739
 115.94719,  71.73964
 115.96724,  69.77340
 115.98730,  67.39403
 116.00736,  63.02739
 116.02741,  66.33610
 116.04747,  59.01212
 116.06753,  57.39917
 116.08759,  48.58026
 116.10764,  53.54078
 116.12770,  48.94561
 116.14776,  47.21221
 116.16782,  44.52586
 116.18788,  46.21477
 116.20793,  48.44395
 116.22799,  43.71339
 116.24805,  38.35524
 116.26810,  42.84712
 116.28816,  39.80714
 116.30822,  45.93178
 116.32828,  44.46182
 116.34834,  41.80387
 116.36839,  48.66414
 116.38845,  49.32388
 116.40851,  45.67513
 116.42857,  42.17831
 116.44863,  45.43567
 116.46868,  43.68009
 116.48874,  44.31833
 116.50880,  38.37372
 116.52886,  36.61566
 116.54892,  35.18917
 116.56898,  32.78039
 116.58903,  28.43746
 116.60909,  31.35415
 116.62915,  29.77786
 116.64921,  27.77145
 116.66927,  28.70012
 116.68932,  27.06971
 116.70938,  22.37984
 116.72944,  23.58268
 116.74950,  22.99108
 116.76956,  22.66130
 116.78962,  21.53254
 116.80968,  21.83733
 116.82973,  21.51958
 116.84979,  21.23210
 116.86985,  21.65936
 116.88991,  20.02748
 116.90997,  21.32364
 116.93003,  20.84778
 116.95009,  18.19814
 116.97015,  23.41025
 116.99020,  24.29263
 117.01026,  20.51951
 117.03032,  21.35688
 117.05038,  18.38749
 117.07044,  17.90729
 117.09050,  20.61603
 117.11056,  18.86608
 117.13062,  19.29295
 117.15068,  20.05195
 117.17074,  22.07203
 117.19079,  18.70902
 117.21085,  21.22668
 117.23091,  23.09610
 117.25097,  22.85850
 117.27103,  21.22346
 117.29109,  20.97742
 117.31115,  18.11576
 117.33121,  21.73549
 117.35127,  21.60442
 117.37133,  22.54112
 117.39139,  24.17621
 117.41145,  22.71595
 117.43151,  20.59834
 117.45157,  19.87265
 117.47163,  24.79979
 117.49169,  23.78533
 117.51175,  21.10018
 117.53181,  21.65093
 117.55187,  24.20286
 117.57193,  25.29830
 117.59198,  27.29452
 117.61205,  25.07626
 117.63211,  25.61882
 117.65216,  26.77290
 117.67223,  25.47769
 117.69229,  29.63660
 117.71235,  31.66921
 117.73241,  25.58061
 117.75247,  28.90592
 117.77252,  26.88738
 117.79259,  28.64481
 117.81265,  26.11904
 117.83271,  27.65991
 117.85277,  27.76273
 117.87283,  27.23436
 117.89289,  24.44575
 117.91295,  23.04510
 117.93301,  27.67944
 117.95307,  25.54728
 117.97313,  23.94993
 117.99319,  23.91295
 118.01325,  22.04129
 118.03331,  25.13661
 118.05337,  20.53993
 118.07343,  22.68319
 118.09349,  24.48739
 118.11355,  22.96084
 118.13362,  21.43554
 118.15368,  24.92029
 118.17374,  23.15824
 118.19380,  19.69162
 118.21386,  23.62710
 118.23392,  24.29765
 118.25398,  25.17886
 118.27404,  24.43470
 118.29410,  24.18763
 118.31417,  24.47593
 118.33423,  24.23822
 118.35429,  20.74895
 118.37435,  22.74948
 118.39441,  22.92587
 118.41447,  17.72949
 118.43453,  18.62781
 118.45459,  18.18493
 118.47465,  18.75789
 118.49472,  21.34647
 118.51478,  18.28446
 118.53484,  18.05065
 118.55490,  16.99639
 118.57496,  17.91800
 118.59503,  18.75925
 118.61509,  18.11034
 118.63515,  18.83844
 118.65521,  17.25921
 118.67527,  18.60581
 118.69533,  19.71376
 118.71540,  18.74391
 118.73546,  18.32435
 118.75552,  17.60696
 118.77558,  20.46976
 118.79564,  22.14828
 118.81571,  19.74100
 118.83577,  17.83822
 118.85583,  19.88073
 118.87589,  17.74469
 118.89595,  18.30443
 118.91602,  19.83499
 118.93608,  17.90903
 118.95614,  18.42319
 118.97620,  17.73606
 118.99627,  18.11756
 119.01633,  17.91953
 119.03639,  19.71296
 119.05645,  16.78784
 119.07651,  17.74767
 119.09658,  17.90356
 119.11664,  18.17826
 119.13670,  18.35309
 119.15677,  18.45348
 119.17683,  20.40943
 119.19689,  17.71745
 119.21695,  20.64027
 119.23702,  20.29105
 119.25708,  19.60416
 119.27714,  18.42644
 119.29721,  18.10057
 119.31727,  12.97243
